Time:128Hz,Epoch,Channel 1,Channel 2,Channel 3,Channel 4,Channel 5,Channel 6,Channel 7,Channel 8,Channel 9,Channel 10,Channel 11,Channel 12,Channel 13,Channel 14,Event Id,Event Date,Event Duration
0.0000000000,0,4186.9228515625,4217.5639648438,4126.9228515625,5833.2050781250,4351.9228515625,4258.7177734375,4216.6665039063,4069.4870605469,3465.0000000000,2768.4614257813,4016.0256347656,3049.3588867188,3778.5898437500,3558.3332519531,,,
0.0078125000,0,4187.5639648438,4214.3588867188,4110.6411132813,5917.4360351563,4345.8974609375,4259.7436523438,4214.8715820313,4065.8974609375,3462.0512695313,2775.3845214844,4029.7436523438,2932.1794433594,3792.6923828125,3555.5129394531,,,
0.0156250000,0,4194.4873046875,4211.9228515625,4113.7177734375,5620.3847656250,4354.7436523438,4259.3588867188,4216.0258789063,4066.1538085938,3467.5642089844,2783.4614257813,4006.9230957031,3203.5898437500,3791.4101562500,3558.2050781250,,,
0.0234375000,0,4201.0258789063,4214.4873046875,4121.0258789063,4803.9741210938,4398.2050781250,4261.0258789063,4216.7949218750,4069.8718261719,3474.6154785156,2783.7180175781,3923.8461914063,4040.3845214844,3788.3332519531,3566.7949218750,,,
0.0312500000,0,4199.4873046875,4217.1796875000,4130.3847656250,4324.6152343750,4430.2563476563,4262.9487304688,4215.5126953125,4071.9230957031,3474.8718261719,2791.7949218750,3864.1025390625,4550.1284179688,3787.3076171875,3571.6667480469,,,
0.0390625000,0,4197.0512695313,4215.5126953125,4142.4360351563,4345.0000000000,4429.1025390625,4260.6411132813,4215.6411132813,4071.7949218750,3476.2819824219,2803.0769042969,3857.5642089844,4540.1284179688,3777.4357910156,3567.9487304688,,,
0.0468750000,0,4197.9487304688,4218.5898437500,4131.1538085938,4318.5898437500,4430.2563476563,4260.5126953125,4216.0258789063,4071.5385742188,3480.1281738281,2802.0512695313,3850.0000000000,4557.1796875000,3790.0000000000,3564.6154785156,,,
0.0546875000,0,4196.4101562500,4223.0771484375,4126.1538085938,4278.2050781250,4437.6923828125,4260.0000000000,4211.9228515625,4072.0512695313,3482.8205566406,2807.0512695313,3841.1538085938,4599.8715820313,3794.2307128906,3564.1025390625,,,
0.0625000000,0,4195.3847656250,4224.3588867188,4162.4360351563,4375.8974609375,4438.5898437500,4256.6665039063,4210.1284179688,4074.6154785156,3488.0769042969,2820.0000000000,3856.1538085938,4500.3847656250,3755.1281738281,3563.7180175781,,,
0.0703125000,0,4196.6665039063,4223.8461914063,4178.8461914063,4466.7949218750,4435.8974609375,4256.6665039063,4210.8974609375,4075.1281738281,3493.8461914063,2820.2563476563,3867.3076171875,4413.4614257813,3740.6411132813,3562.8205566406,,,
0.0781250000,0,4198.0771484375,4226.0258789063,4149.2309570313,4571.2822265625,4439.4873046875,4259.1025390625,4213.5898437500,4074.8718261719,3492.8205566406,2821.4101562500,3859.7436523438,4302.1796875000,3779.1025390625,3560.1281738281,,,
0.0859375000,0,4197.5639648438,4225.0000000000,4186.5385742188,4851.9228515625,4468.3334960938,4257.9487304688,4215.2563476563,4076.7949218750,3495.6411132813,2834.1025390625,3869.4870605469,4002.9487304688,3735.6411132813,3557.5642089844,,,
0.0937500000,0,4198.5898437500,4223.7177734375,4291.6665039063,5190.3847656250,4515.3847656250,4257.3076171875,4212.3076171875,4078.4614257813,3506.6667480469,2836.5385742188,3853.9743652344,3671.6667480469,3607.3076171875,3557.9487304688,,,
0.1015625000,0,4198.0771484375,4227.8203125000,4320.5126953125,5341.0258789063,4542.0512695313,4259.2309570313,4210.6411132813,4079.3588867188,3511.4101562500,2836.7949218750,3773.3332519531,3594.7436523438,3567.4357910156,3559.7436523438,,,
0.1093750000,0,4199.3588867188,4230.0000000000,4291.1538085938,5361.7949218750,4549.3588867188,4259.2309570313,4215.1284179688,4081.7949218750,3510.1281738281,2849.1025390625,3657.3076171875,3674.1025390625,3606.7949218750,3558.8461914063,,,
0.1171875000,0,4201.1538085938,4229.1025390625,4304.7436523438,5446.5385742188,4550.5126953125,4257.3076171875,4219.2309570313,4080.6411132813,3510.0000000000,2852.6923828125,3581.4101562500,3670.2563476563,3598.3332519531,3557.0512695313,,,
0.1250000000,0,4200.6411132813,4233.4614257813,4337.4360351563,5561.7949218750,4528.9741210938,4257.4360351563,4217.8203125000,4078.3332519531,3514.8718261719,2851.4101562500,3498.3332519531,3670.1281738281,3562.4357910156,3557.6923828125,,,
0.1328125000,0,4199.3588867188,4237.0512695313,4335.7690429688,5603.7177734375,4502.9487304688,4260.3847656250,4215.2563476563,4080.7692871094,3520.1281738281,2863.9743652344,3228.8461914063,3913.9743652344,3563.8461914063,3557.8205566406,,,
0.1406250000,0,4200.2563476563,4235.5126953125,4324.6152343750,5579.3588867188,4502.3076171875,4262.3076171875,4214.3588867188,4082.3076171875,3522.3076171875,2870.3845214844,2934.4870605469,4210.0000000000,3576.7949218750,3556.1538085938,,,
0.1484375000,0,4200.8974609375,4235.2563476563,4324.1025390625,5506.9228515625,4505.6411132813,4259.3588867188,4215.2563476563,4080.5129394531,3522.9487304688,2867.3076171875,2943.3332519531,4269.3588867188,3573.4614257813,3555.0000000000,,,
0.1562500000,0,4201.4101562500,4232.9487304688,4328.2050781250,5383.8461914063,4476.2822265625,4256.0258789063,4216.9228515625,4080.0000000000,3525.2563476563,2877.8205566406,3074.4870605469,4291.7949218750,3569.8718261719,3564.2307128906,,,
0.1640625000,0,4203.8461914063,4214.7436523438,4352.0512695313,5107.1796875000,4491.7949218750,4257.0512695313,4214.1025390625,4080.1281738281,3528.8461914063,2886.9230957031,2921.4101562500,4673.0771484375,3549.1025390625,3581.7949218750,,,
0.1718750000,0,4206.2822265625,4191.6665039063,4383.2050781250,4648.5898437500,4623.3334960938,4258.3334960938,4215.3847656250,4077.4357910156,3527.6923828125,2883.3332519531,2851.0256347656,5049.6152343750,3509.2307128906,3598.0769042969,,,
0.1796875000,0,4206.0258789063,4198.8461914063,4373.5898437500,4207.1796875000,4735.0000000000,4257.3076171875,4219.1025390625,4076.5385742188,3529.2307128906,2890.5129394531,3287.1794433594,4950.2563476563,3511.9230957031,3595.0000000000,,,
0.1875000000,0,4207.8203125000,4234.4873046875,4339.4873046875,4030.3845214844,4748.5898437500,4255.0000000000,4216.9228515625,4080.0000000000,3535.0000000000,2902.3076171875,3604.2307128906,4802.4360351563,3561.1538085938,3568.3332519531,,,
0.1953125000,0,4212.8203125000,4254.1025390625,4331.6665039063,3938.7180175781,4797.4360351563,4255.3847656250,4215.1284179688,4084.2307128906,3542.0512695313,2899.8718261719,3306.0256347656,5110.0000000000,3584.7436523438,3550.5129394531,,,
0.2031250000,0,4217.6923828125,4248.3334960938,4332.1796875000,3283.0769042969,4916.0258789063,4258.8461914063,4218.3334960938,4087.8205566406,3546.4101562500,2904.1025390625,3123.0769042969,5780.7690429688,3583.7180175781,3555.7692871094,,,
0.2109375000,0,4224.4873046875,4245.3847656250,4312.5639648438,2212.3076171875,4965.2563476563,4258.8461914063,4220.0000000000,4088.7180175781,3548.4614257813,2916.7949218750,3631.0256347656,6275.6411132813,3610.0000000000,3562.3076171875,,,
0.2187500000,0,4229.1025390625,4251.1538085938,4302.3076171875,1688.4615478516,4957.1796875000,4253.0771484375,4217.3076171875,4088.5898437500,3551.7949218750,2917.1794433594,4117.3076171875,6338.5898437500,3637.4357910156,3561.2819824219,,,
0.2265625000,0,4233.3334960938,4246.2822265625,4307.6923828125,1812.9487304688,5026.5385742188,4255.2563476563,4217.1796875000,4090.5129394531,3558.0769042969,2919.3588867188,3820.0000000000,6426.1538085938,3642.6923828125,3573.8461914063,,,
0.2343750000,0,4235.7690429688,4227.5639648438,4310.0000000000,1896.0256347656,5117.0512695313,4261.2822265625,4218.8461914063,4090.6411132813,3561.0256347656,2931.6667480469,3311.1538085938,6740.2563476563,3637.5642089844,3593.9743652344,,,
0.2421875000,0,4237.9487304688,4226.9228515625,4314.1025390625,1854.1025390625,5142.5639648438,4258.3334960938,4219.1025390625,4088.9743652344,3557.9487304688,2933.8461914063,3197.8205566406,6881.2822265625,3629.3588867188,3592.1794433594,,,
0.2500000000,0,4238.0771484375,4258.5898437500,4316.6665039063,1921.2821044922,5131.4101562500,4254.4873046875,4216.1538085938,4088.3332519531,3561.5385742188,2932.8205566406,3282.5642089844,6760.8974609375,3630.2563476563,3564.7436523438,,,
0.2578125000,0,4233.9741210938,4285.6411132813,4318.7177734375,1968.0769042969,5096.6665039063,4258.2050781250,4215.3847656250,4088.7180175781,3571.7949218750,2943.3332519531,3478.5898437500,6550.7690429688,3632.3076171875,3542.8205566406,,,
0.2656250000,0,4227.9487304688,4278.7177734375,4321.4101562500,1971.6666259766,5036.0258789063,4258.9741210938,4216.4101562500,4087.9487304688,3573.2050781250,2949.6154785156,3753.7180175781,6343.0771484375,3625.0000000000,3539.7436523438,,,
0.2734375000,0,4230.2563476563,4275.1284179688,4330.3847656250,1994.3590087891,5004.3588867188,4255.7690429688,4214.7436523438,4090.1281738281,3570.2563476563,2948.8461914063,3812.3076171875,6297.6923828125,3614.6154785156,3535.0000000000,,,
0.2812500000,0,4231.2822265625,4289.6152343750,4340.1284179688,2001.0256347656,5006.5385742188,4256.0258789063,4214.3588867188,4090.0000000000,3574.1025390625,2955.2563476563,3727.4357910156,6370.8974609375,3609.7436523438,3527.1794433594,,,
0.2890625000,0,4224.2309570313,4292.9487304688,4339.7436523438,2001.2821044922,4983.3334960938,4256.6665039063,4213.2050781250,4088.7180175781,3577.5642089844,2962.3076171875,3799.4870605469,6322.1796875000,3610.5129394531,3526.7949218750,,,
0.2968750000,0,4222.9487304688,4287.5639648438,4338.7177734375,1995.6409912109,4965.6411132813,4255.2563476563,4211.6665039063,4090.2563476563,3576.0256347656,2966.6667480469,3844.4870605469,6300.5126953125,3606.9230957031,3527.6923828125,,,
0.3046875000,0,4227.3076171875,4288.7177734375,4340.6411132813,2013.4615478516,4977.1796875000,4255.6411132813,4212.5639648438,4087.9487304688,3582.3076171875,2972.3076171875,3731.1538085938,6379.1025390625,3602.6923828125,3525.1281738281,,,
0.3125000000,0,4226.9228515625,4294.3588867188,4342.0512695313,2022.0512695313,4976.6665039063,4257.0512695313,4214.7436523438,4084.8718261719,3588.8461914063,2975.2563476563,3737.0512695313,6361.9228515625,3607.5642089844,3522.9487304688,,,
0.3203125000,0,4227.1796875000,4292.6923828125,4339.6152343750,2007.9487304688,4941.1538085938,4254.8715820313,4215.0000000000,4087.6923828125,3587.4357910156,2980.1281738281,4039.2307128906,6123.2050781250,3613.3332519531,3523.3332519531,,,
0.3281250000,0,4227.5639648438,4285.1284179688,4335.8974609375,2157.8205566406,4902.8203125000,4254.2309570313,4216.4101562500,4090.2563476563,3587.0512695313,2988.5898437500,4264.7436523438,5796.6665039063,3613.9743652344,3523.9743652344,,,
0.3359375000,0,4222.1796875000,4280.7690429688,4330.6411132813,2541.9230957031,4890.0000000000,4260.6411132813,4214.3588867188,4086.4101562500,3590.6411132813,2991.1538085938,4141.9228515625,5560.3847656250,3617.8205566406,3522.0512695313,,,
0.3437500000,0,4218.5898437500,4279.8715820313,4323.4614257813,2950.5129394531,4851.5385742188,4256.6665039063,4212.1796875000,4086.0256347656,3591.0256347656,2993.0769042969,4291.1538085938,5054.3588867188,3627.1794433594,3521.0256347656,,,
0.3515625000,0,4216.1538085938,4277.4360351563,4314.3588867188,3224.1025390625,4772.5639648438,4247.8203125000,4213.0771484375,4087.0512695313,3586.6667480469,3003.9743652344,4849.4873046875,4314.1025390625,3635.3845214844,3518.0769042969,,,
0.3593750000,0,4213.8461914063,4269.2309570313,4304.1025390625,3445.5129394531,4726.1538085938,4249.1025390625,4213.4614257813,4084.6154785156,3588.4614257813,3008.2050781250,5081.7949218750,3900.2563476563,3647.0512695313,3515.3845214844,,,
0.3671875000,0,4212.3076171875,4264.6152343750,4292.3076171875,3693.3332519531,4728.2050781250,4252.8203125000,4210.8974609375,4086.7949218750,3593.4614257813,3004.3588867188,4856.9228515625,3867.6923828125,3664.2307128906,3515.5129394531,,,
0.3750000000,0,4213.0771484375,4264.8715820313,4278.2050781250,3894.3588867188,4726.5385742188,4250.5126953125,4210.7690429688,4089.3588867188,3595.3845214844,3013.2050781250,4672.8203125000,3837.5642089844,3682.8205566406,3517.9487304688,,,
0.3828125000,0,4213.3334960938,4264.8715820313,4268.4614257813,3983.0769042969,4721.4101562500,4248.7177734375,4213.5898437500,4087.8205566406,3597.8205566406,3025.5129394531,4587.9487304688,3828.9743652344,3694.3588867188,3519.4870605469,,,
0.3906250000,0,4215.7690429688,4263.5898437500,4274.6152343750,4005.8974609375,4733.4614257813,4251.7949218750,4214.1025390625,4090.3845214844,3601.2819824219,3022.9487304688,4507.9487304688,3870.6411132813,3692.5642089844,3520.1281738281,,,
0.3984375000,0,4215.6411132813,4261.9228515625,4277.9487304688,4040.2563476563,4737.3076171875,4251.1538085938,4211.5385742188,4094.8718261719,3602.1794433594,3022.3076171875,4468.7177734375,3873.5898437500,3687.8205566406,3516.4101562500,,,
0.4062500000,0,4215.5126953125,4262.4360351563,4267.4360351563,4058.2050781250,4727.3076171875,4251.0258789063,4210.8974609375,4093.9743652344,3602.0512695313,3035.7692871094,4427.6923828125,3892.8205566406,3693.5898437500,3514.1025390625,,,
0.4140625000,0,4217.9487304688,4262.0512695313,4262.8203125000,4057.8205566406,4737.0512695313,4255.7690429688,4213.7177734375,4092.4357910156,3605.0000000000,3042.5642089844,4427.6923828125,3884.3588867188,3705.0000000000,3518.3332519531,,,
0.4218750000,0,4218.4614257813,4263.0771484375,4267.3076171875,4083.3332519531,4771.2822265625,4258.8461914063,4215.2563476563,4094.3588867188,3605.0000000000,3037.9487304688,4416.6665039063,3836.1538085938,3709.1025390625,3519.1025390625,,,
0.4296875000,0,4216.4101562500,4262.6923828125,4264.1025390625,4101.2822265625,4790.1284179688,4251.9228515625,4213.2050781250,4094.7436523438,3606.2819824219,3042.4357910156,4395.3847656250,3806.7949218750,3708.3332519531,3514.3588867188,,,
0.4375000000,0,4216.1538085938,4262.9487304688,4259.2309570313,4094.7436523438,4792.8203125000,4248.7177734375,4212.8203125000,4095.1281738281,3614.2307128906,3055.3845214844,4391.1538085938,3807.1794433594,3714.8718261719,3514.7436523438,,,
0.4453125000,0,4217.0512695313,4263.8461914063,4257.5639648438,4088.2050781250,4797.8203125000,4251.9228515625,4214.4873046875,4095.0000000000,3617.9487304688,3058.3332519531,4386.9228515625,3815.5129394531,3723.9743652344,3517.5642089844,,,
0.4531250000,0,4218.8461914063,4261.6665039063,4252.3076171875,4095.3845214844,4791.0258789063,4249.6152343750,4212.8203125000,4092.1794433594,3617.9487304688,3053.7180175781,4385.1284179688,3817.8205566406,3729.1025390625,3516.5385742188,,,
0.4609375000,0,4219.4873046875,4261.9228515625,4252.1796875000,4103.8461914063,4776.0258789063,4255.1284179688,4209.7436523438,4092.6923828125,3619.2307128906,3059.7436523438,4378.7177734375,3820.8974609375,3728.8461914063,3515.1281738281,,,
0.4687500000,0,4217.1796875000,4261.2822265625,4256.5385742188,4106.0258789063,4773.8461914063,4260.6411132813,4211.6665039063,4095.3845214844,3620.6411132813,3072.3076171875,4370.0000000000,3827.3076171875,3726.6667480469,3516.9230957031,,,
0.4765625000,0,4218.4614257813,4258.9741210938,4255.0000000000,4109.3588867188,4775.8974609375,4254.1025390625,4213.5898437500,4096.2822265625,3623.4614257813,3072.4357910156,4365.7690429688,3829.6154785156,3727.3076171875,3516.1538085938,,,
0.4843750000,0,4223.9741210938,4257.4360351563,4257.1796875000,4115.2563476563,4770.8974609375,4252.4360351563,4213.5898437500,4095.3845214844,3625.2563476563,3069.4870605469,4362.1796875000,3836.7949218750,3727.6923828125,3511.4101562500,,,
0.4921875000,0,4222.9487304688,4258.0771484375,4264.8715820313,4117.8203125000,4763.9741210938,4255.7690429688,4216.9228515625,4094.7436523438,3625.6411132813,3079.8718261719,4357.4360351563,3832.8205566406,3722.1794433594,3510.8974609375,,,
0.5000000000,0,4218.8461914063,4260.2563476563,4269.6152343750,4115.5126953125,4762.5639648438,4251.2822265625,4217.5639648438,4092.5642089844,3631.2819824219,3089.2307128906,4358.7177734375,3839.2307128906,3711.2819824219,3515.2563476563,,,
0.5078125000,0,4223.8461914063,4264.4873046875,4279.3588867188,4118.7177734375,4762.1796875000,4250.1284179688,4214.4873046875,4094.2307128906,3638.0769042969,3089.4870605469,4359.1025390625,3843.5898437500,3701.2819824219,3515.6411132813,,,
0.5156250000,0,4224.1025390625,4264.3588867188,4292.0512695313,4121.2822265625,4756.5385742188,4253.5898437500,4213.2050781250,4098.3334960938,3635.2563476563,3092.0512695313,4349.3588867188,3848.8461914063,3690.0000000000,3512.5642089844,,,
0.5234375000,0,4218.2050781250,4259.3588867188,4294.7436523438,4114.7436523438,4750.3847656250,4254.1025390625,4213.7177734375,4099.3588867188,3633.7180175781,3099.2307128906,4351.0258789063,3850.8974609375,3684.4870605469,3513.0769042969,,,
0.5312500000,0,4220.0000000000,4260.5126953125,4288.9741210938,4115.7690429688,4747.8203125000,4254.6152343750,4213.3334960938,4097.3076171875,3639.3588867188,3105.0000000000,4357.6923828125,3861.0256347656,3687.8205566406,3516.1538085938,,,
0.5390625000,0,4227.1796875000,4264.1025390625,4289.3588867188,4131.9228515625,4743.9741210938,4255.2563476563,4213.3334960938,4096.0258789063,3640.2563476563,3107.3076171875,4344.6152343750,3862.8205566406,3691.1538085938,3513.9743652344,,,
0.5468750000,0,4225.1284179688,4262.1796875000,4288.9741210938,4146.6665039063,4739.4873046875,4256.2822265625,4213.5898437500,4095.8974609375,3641.5385742188,3107.9487304688,4323.0771484375,3869.8718261719,3696.9230957031,3510.1281738281,,,
0.5546875000,0,4221.0258789063,4261.2822265625,4283.8461914063,4155.2563476563,4733.9741210938,4257.1796875000,4215.0000000000,4097.9487304688,3648.5898437500,3113.3332519531,4309.1025390625,3872.1794433594,3708.3332519531,3512.3076171875,,,
0.5625000000,0,4221.7949218750,4263.0771484375,4285.6411132813,4155.0000000000,4726.9228515625,4250.8974609375,4214.7436523438,4101.2822265625,3650.7692871094,3123.0769042969,4311.5385742188,3876.5385742188,3707.1794433594,3513.2050781250,,,
0.5703125000,0,4223.3334960938,4262.4360351563,4297.8203125000,4138.7177734375,4723.3334960938,4248.4614257813,4210.7690429688,4099.2309570313,3650.7692871094,3125.6411132813,4329.4873046875,3882.4357910156,3691.2819824219,3511.4101562500,,,
0.5781250000,0,4220.8974609375,4260.1284179688,4306.4101562500,4125.0000000000,4722.4360351563,4254.1025390625,4211.2822265625,4096.7949218750,3653.3332519531,3124.3588867188,4342.1796875000,3887.3076171875,3685.0000000000,3509.6154785156,,,
0.5859375000,0,4219.6152343750,4260.2563476563,4302.3076171875,4126.9228515625,4716.0258789063,4253.9741210938,4212.6923828125,4101.5385742188,3652.1794433594,3130.8974609375,4336.6665039063,3888.0769042969,3688.8461914063,3510.2563476563,,,
0.5937500000,0,4222.9487304688,4262.0512695313,4297.5639648438,4130.2563476563,4708.9741210938,4253.5898437500,4209.3588867188,4105.3847656250,3653.2050781250,3140.6411132813,4330.8974609375,3886.9230957031,3689.8718261719,3510.7692871094,,,
0.6015625000,0,4227.3076171875,4259.7436523438,4300.2563476563,4131.9228515625,4706.9228515625,4256.7949218750,4211.6665039063,4103.8461914063,3660.7692871094,3141.6667480469,4334.2309570313,3894.1025390625,3691.6667480469,3512.0512695313,,,
0.6093750000,0,4224.7436523438,4259.4873046875,4303.2050781250,4137.0512695313,4704.8715820313,4256.4101562500,4218.5898437500,4103.3334960938,3663.5898437500,3139.3588867188,4331.4101562500,3899.3588867188,3694.3588867188,3511.1538085938,,,
0.6171875000,0,4222.1796875000,4258.7177734375,4300.7690429688,4137.3076171875,4700.6411132813,4255.2563476563,4216.1538085938,4102.9487304688,3664.6154785156,3146.2819824219,4326.5385742188,3903.0769042969,3694.1025390625,3509.4870605469,,,
0.6250000000,0,4226.1538085938,4256.7949218750,4299.6152343750,4135.1284179688,4695.5126953125,4253.4614257813,4209.2309570313,4099.4873046875,3667.6923828125,3156.1538085938,4323.0771484375,3899.2307128906,3695.1281738281,3510.1281738281,,,
0.6328125000,0,4224.7436523438,4257.8203125000,4301.6665039063,4143.2050781250,4688.3334960938,4248.4614257813,4213.0771484375,4101.7949218750,3667.9487304688,3156.9230957031,4317.3076171875,3912.3076171875,3698.9743652344,3511.1538085938,,,
0.6406250000,0,4219.1025390625,4259.2309570313,4301.2822265625,4152.0512695313,4682.9487304688,4250.5126953125,4219.7436523438,4108.3334960938,3668.3332519531,3156.5385742188,4313.5898437500,3922.3076171875,3699.1025390625,3510.7692871094,,,
0.6484375000,0,4221.1538085938,4255.3847656250,4296.2822265625,4151.9228515625,4681.9228515625,4257.3076171875,4217.8203125000,4105.1284179688,3667.5642089844,3165.0000000000,4311.4101562500,3926.7949218750,3698.3332519531,3509.4870605469,,,
0.6562500000,0,4227.1796875000,4255.3847656250,4296.5385742188,4151.1538085938,4678.8461914063,4257.6923828125,4214.2309570313,4097.0512695313,3667.5642089844,3172.8205566406,4308.9741210938,3918.8461914063,3702.4357910156,3510.7692871094,,,
0.6640625000,0,4223.9741210938,4257.4360351563,4300.3847656250,4151.7949218750,4674.8715820313,4256.9228515625,4215.6411132813,4099.3588867188,3674.4870605469,3171.5385742188,4310.6411132813,3920.7692871094,3704.6154785156,3510.7692871094,,,
0.6718750000,0,4221.1538085938,4254.7436523438,4300.7690429688,4154.6152343750,4677.3076171875,4258.3334960938,4218.4614257813,4106.7949218750,3679.6154785156,3173.3332519531,4308.4614257813,3918.8461914063,3704.4870605469,3509.3588867188,,,
0.6796875000,0,4223.0771484375,4256.1538085938,4297.8203125000,4158.7177734375,4680.1284179688,4259.1025390625,4215.0000000000,4105.0000000000,3678.5898437500,3182.6923828125,4297.1796875000,3916.9230957031,3707.9487304688,3508.9743652344,,,
0.6875000000,0,4225.3847656250,4257.3076171875,4295.7690429688,4160.7690429688,4674.8715820313,4258.2050781250,4213.2050781250,4100.3847656250,3681.7949218750,3189.2307128906,4294.1025390625,3911.4101562500,3713.8461914063,3508.0769042969,,,
0.6953125000,0,4225.5126953125,4251.9228515625,4293.0771484375,4162.1796875000,4669.6152343750,4253.0771484375,4215.1284179688,4102.1796875000,3684.4870605469,3187.1794433594,4298.4614257813,3917.8205566406,3712.6923828125,3507.1794433594,,,
0.7031250000,0,4225.0000000000,4250.3847656250,4293.3334960938,4163.2050781250,4666.7949218750,4250.6411132813,4216.4101562500,4106.4101562500,3684.1025390625,3188.4614257813,4297.1796875000,3919.3588867188,3712.5642089844,3508.3332519531,,,
0.7109375000,0,4223.5898437500,4250.2563476563,4292.5639648438,4163.9741210938,4659.3588867188,4254.4873046875,4217.1796875000,4105.3847656250,3684.1025390625,3197.9487304688,4293.3334960938,3922.3076171875,3714.7436523438,3509.2307128906,,,
0.7187500000,0,4224.2309570313,4250.2563476563,4289.7436523438,4167.0512695313,4621.7949218750,4254.7436523438,4214.1025390625,4103.2050781250,3685.7692871094,3204.6154785156,4291.4101562500,3957.4357910156,3715.0000000000,3508.9743652344,,,
0.7265625000,0,4225.3847656250,4250.5126953125,4290.0000000000,4167.6923828125,4513.9741210938,4253.5898437500,4210.1284179688,4106.1538085938,3692.1794433594,3202.6923828125,4292.0512695313,4060.2563476563,3719.7436523438,3510.6411132813,,,
0.7343750000,0,4224.8715820313,4251.9228515625,4292.1796875000,4164.1025390625,4588.2050781250,4257.4360351563,4213.2050781250,4109.2309570313,3694.3588867188,3204.7436523438,4290.3847656250,4011.6667480469,3723.8461914063,3511.7949218750,,,
0.7421875000,0,4227.9487304688,4252.3076171875,4290.7690429688,4166.0258789063,4650.2563476563,4254.3588867188,4216.2822265625,4107.4360351563,3691.4101562500,3213.9743652344,4287.1796875000,3941.0256347656,3723.9743652344,3510.7692871094,,,
0.7500000000,0,4226.9228515625,4255.6411132813,4289.4873046875,4171.1538085938,4417.0512695313,4248.2050781250,4212.5639648438,4105.2563476563,3694.8718261719,3219.3588867188,4288.0771484375,4103.5898437500,3722.9487304688,3508.3332519531,,,
0.7578125000,0,4223.7177734375,4251.0258789063,4289.3588867188,4173.2050781250,5023.2050781250,4255.1284179688,4218.5898437500,4104.2309570313,3701.0256347656,3218.3332519531,4287.1796875000,3675.0000000000,3721.5385742188,3507.6923828125,,,
0.7656250000,0,4235.0000000000,4221.2822265625,4287.6923828125,4182.5639648438,6785.2563476563,4268.2050781250,4228.3334960938,4105.0000000000,3696.5385742188,3219.1025390625,4271.0258789063,2008.7178955078,3717.5642089844,3506.0256347656,,,
0.7734375000,0,4257.1796875000,4190.3847656250,4286.4101562500,4191.1538085938,7876.2822265625,4268.8461914063,4222.3076171875,4106.6665039063,3692.5642089844,3226.6667480469,4262.5639648438,657.9487304688,3716.1538085938,3503.2050781250,,,
0.7812500000,0,4263.5898437500,4185.8974609375,4283.3334960938,4184.4873046875,7697.0512695313,4261.7949218750,4213.7177734375,4106.6665039063,3696.0256347656,3235.3845214844,4272.1796875000,628.9743652344,3715.7692871094,3500.0000000000,,,
0.7890625000,0,4262.8203125000,4193.4614257813,4285.3847656250,4173.2050781250,7579.2309570313,4264.4873046875,4217.1796875000,4106.7949218750,3696.1538085938,3236.1538085938,4276.2822265625,833.3333129883,3708.9743652344,3499.1025390625,,,
0.7968750000,0,4266.0258789063,4190.6411132813,4274.3588867188,4165.2563476563,7748.2050781250,4276.0258789063,4218.5898437500,4105.7690429688,3697.8205566406,3232.8205566406,4277.4360351563,686.4102783203,3720.3845214844,3503.2050781250,,,
0.8046875000,0,4264.7436523438,4190.2563476563,4240.2563476563,4162.8203125000,7670.2563476563,4283.0771484375,4216.0258789063,4107.5639648438,3705.2563476563,3238.5898437500,4287.4360351563,695.3845825195,3766.0256347656,3512.3076171875,,,
0.8125000000,0,4260.8974609375,4196.0258789063,4214.4873046875,4149.7436523438,7593.9746093750,4282.4360351563,4217.8203125000,4112.5639648438,3711.7949218750,3249.4870605469,4308.5898437500,812.0512695313,3803.3332519531,3511.6667480469,,,
0.8203125000,0,4264.3588867188,4201.2822265625,4217.4360351563,4113.8461914063,7600.0000000000,4283.7177734375,4220.5126953125,4114.4873046875,3714.4870605469,3252.3076171875,4341.0258789063,803.8461303711,3808.2050781250,3502.0512695313,,,
0.8281250000,0,4266.0258789063,4207.8203125000,4220.0000000000,4093.4614257813,7599.2309570313,4288.4614257813,4220.5126953125,4110.6411132813,3714.6154785156,3249.7436523438,4354.4873046875,805.6409912109,3805.2563476563,3497.5642089844,,,
0.8359375000,0,4267.4360351563,4207.5639648438,4213.8461914063,4116.0258789063,7599.8715820313,4291.7949218750,4220.3847656250,4108.8461914063,3713.9743652344,3252.4357910156,4331.5385742188,807.8204956055,3810.7692871094,3497.3076171875,,,
0.8437500000,0,4269.7436523438,4207.1796875000,4216.6665039063,4139.6152343750,7599.7436523438,4293.9741210938,4222.4360351563,4108.4614257813,3714.1025390625,3262.0512695313,4306.4101562500,806.0256347656,3811.5385742188,3496.7949218750,,,
0.8515625000,0,4266.5385742188,4216.4101562500,4221.5385742188,4138.5898437500,7600.2563476563,4294.1025390625,4223.3334960938,4108.2050781250,3717.5642089844,3267.3076171875,4301.5385742188,806.6666870117,3810.1281738281,3498.4614257813,,,
0.8593750000,0,4260.7690429688,4219.8715820313,4219.6152343750,4138.0771484375,7599.4873046875,4295.8974609375,4221.0258789063,4110.8974609375,3720.2563476563,3266.0256347656,4297.9487304688,805.2564086914,3810.8974609375,3498.8461914063,,,
0.8671875000,0,4259.4873046875,4217.3076171875,4220.2563476563,4142.8203125000,7599.7436523438,4299.7436523438,4219.3588867188,4111.6665039063,3721.0256347656,3264.7436523438,4291.0258789063,803.9743652344,3808.7180175781,3498.4614257813,,,
0.8750000000,0,4257.9487304688,4217.4360351563,4221.7949218750,4143.7177734375,7599.7436523438,4300.5126953125,4220.5126953125,4113.8461914063,3725.8974609375,3271.5385742188,4284.4873046875,806.1538085938,3810.3845214844,3504.3588867188,,,
0.8828125000,0,4256.1538085938,4220.3847656250,4225.1284179688,4144.4873046875,7599.7436523438,4300.6411132813,4220.6411132813,4114.2309570313,3727.3076171875,3281.0256347656,4281.0258789063,806.2820434570,3810.0000000000,3508.0769042969,,,
0.8906250000,0,4258.0771484375,4217.6923828125,4239.6152343750,4146.5385742188,7599.6152343750,4301.4101562500,4222.5639648438,4113.0771484375,3725.1281738281,3284.2307128906,4282.8203125000,804.8717651367,3795.1281738281,3504.2307128906,,,
0.8984375000,0,4258.5898437500,4215.0000000000,4259.2309570313,4147.6923828125,7599.6152343750,4300.1284179688,4221.2822265625,4113.3334960938,3731.0256347656,3282.6923828125,4277.4360351563,805.7692260742,3773.4614257813,3501.2819824219,,,
0.9062500000,0,4258.7177734375,4217.9487304688,4264.6152343750,4154.1025390625,7599.7436523438,4305.8974609375,4218.0771484375,4114.7436523438,3738.7180175781,3282.3076171875,4266.7949218750,806.7948608398,3763.9743652344,3504.3588867188,,,
0.9140625000,0,4263.8461914063,4216.6665039063,4257.6923828125,4160.3847656250,7599.6152343750,4315.0000000000,4220.6411132813,4113.7177734375,3735.5129394531,3290.3845214844,4261.4101562500,805.5128173828,3766.2819824219,3505.6411132813,,,
0.9218750000,0,4269.8715820313,4209.6152343750,4258.8461914063,4160.0000000000,7599.7436523438,4313.9741210938,4224.8715820313,4112.5639648438,3732.4357910156,3298.2050781250,4258.9741210938,805.1281738281,3766.0256347656,3505.2563476563,,,
0.9296875000,0,4266.9228515625,4209.8715820313,4267.3076171875,4157.6923828125,7599.8715820313,4313.4614257813,4223.2050781250,4112.9487304688,3736.4101562500,3300.1281738281,4254.8715820313,805.6409912109,3761.1538085938,3505.0000000000,,,
0.9375000000,0,4262.4360351563,4217.3076171875,4274.2309570313,4158.5898437500,7607.1796875000,4318.4614257813,4222.0512695313,4113.0771484375,3738.5898437500,3298.7180175781,4252.0512695313,803.3333129883,3753.0769042969,3504.3588867188,,,
0.9453125000,0,4264.1025390625,4215.3847656250,4271.9228515625,4164.1025390625,7633.2050781250,4316.2822265625,4222.1796875000,4114.2309570313,3737.1794433594,3300.0000000000,4248.2050781250,775.5128173828,3755.0000000000,3503.7180175781,,,
0.9531250000,0,4263.4614257813,4216.1538085938,4265.2563476563,4168.5898437500,7673.5898437500,4315.7690429688,4221.7949218750,4113.3334960938,3740.7692871094,3306.5385742188,4244.1025390625,705.6409912109,3764.1025390625,3502.4357910156,,,
0.9609375000,0,4255.5126953125,4224.2309570313,4260.7690429688,4166.7949218750,7721.7949218750,4322.6923828125,4221.2822265625,4114.1025390625,3746.7949218750,3313.4614257813,4242.4360351563,722.8204956055,3767.5642089844,3500.8974609375,,,
0.9687500000,0,4255.2563476563,4225.3847656250,4248.7177734375,4165.3847656250,7707.9487304688,4324.1025390625,4219.6152343750,4118.5898437500,3749.8718261719,3315.8974609375,4242.5639648438,693.5897216797,3785.8974609375,3498.3332519531,,,
0.9765625000,0,4257.3076171875,4228.0771484375,4228.2050781250,4173.5898437500,7598.8461914063,4320.1284179688,4218.9741210938,4120.2563476563,3748.7180175781,3314.6154785156,4232.6923828125,674.6153564453,3820.7692871094,3496.6667480469,,,
0.9843750000,0,4253.7177734375,4240.0000000000,4218.7177734375,4188.5898437500,7257.4360351563,4318.5898437500,4220.5126953125,4121.4101562500,3750.8974609375,3318.4614257813,4211.5385742188,1132.6922607422,3836.7949218750,3497.3076171875,,,
0.9921875000,0,4249.4873046875,4251.9228515625,4225.2563476563,4197.8203125000,6200.7690429688,4315.8974609375,4219.6152343750,4120.5126953125,3758.0769042969,3326.9230957031,4197.5639648438,2263.7180175781,3830.1281738281,3497.6923828125,,,
1.0000000000,0,4245.8974609375,4258.5898437500,4230.6411132813,4202.4360351563,4560.3847656250,4313.9741210938,4220.1284179688,4120.8974609375,3761.2819824219,3333.2050781250,4200.2563476563,3793.9743652344,3832.1794433594,3497.0512695313,,,
1.0078125000,0,4238.0771484375,4262.1796875000,4226.9228515625,4202.0512695313,3505.8974609375,4313.0771484375,4221.0258789063,4122.3076171875,3762.0512695313,3332.6923828125,4205.5126953125,4795.8974609375,3840.8974609375,3497.6923828125,,,
1.0156250000,0,4233.7177734375,4265.3847656250,4226.9228515625,4200.2563476563,3460.7692871094,4310.6411132813,4219.7436523438,4121.2822265625,3767.6923828125,3329.4870605469,4206.4101562500,4958.3334960938,3840.2563476563,3499.3588867188,,,
1.0234375000,0,4235.0000000000,4266.0258789063,4227.8203125000,4200.5126953125,3594.3588867188,4307.9487304688,4216.4101562500,4117.3076171875,3769.8718261719,3334.6154785156,4202.1796875000,4793.2050781250,3840.0000000000,3498.0769042969,,,
1.0312500000,0,4236.2822265625,4265.1284179688,4225.0000000000,4201.0258789063,3532.4357910156,4305.8974609375,4215.1284179688,4117.8203125000,3768.4614257813,3343.5898437500,4200.0000000000,4845.1284179688,3841.5385742188,3498.4614257813,,,
1.0390625000,0,4237.4360351563,4263.5898437500,4223.9741210938,4199.6152343750,3564.8718261719,4308.0771484375,4217.3076171875,4119.2309570313,3769.8718261719,3348.4614257813,4202.4360351563,4839.6152343750,3841.4101562500,3498.4614257813,,,
1.0468750000,0,4238.2050781250,4263.4614257813,4225.7690429688,4198.8461914063,3653.2050781250,4310.0000000000,4217.4360351563,4119.8715820313,3770.0000000000,3348.0769042969,4202.3076171875,4742.4360351563,3840.8974609375,3495.6411132813,,,
1.0546875000,0,4239.8715820313,4263.2050781250,4226.2822265625,4198.9741210938,3663.3332519531,4304.1025390625,4214.3588867188,4123.3334960938,3771.6667480469,3346.6667480469,4202.5639648438,4739.7436523438,3841.5385742188,3493.5898437500,,,
1.0625000000,0,4239.7436523438,4263.0771484375,4224.3588867188,4198.2050781250,3665.8974609375,4299.3588867188,4213.0771484375,4122.5639648438,3776.7949218750,3350.2563476563,4205.8974609375,4739.6152343750,3845.7692871094,3497.1794433594,,,
1.0703125000,0,4235.1284179688,4260.3847656250,4223.4614257813,4201.0258789063,3670.8974609375,4301.5385742188,4215.3847656250,4117.9487304688,3777.9487304688,3358.8461914063,4210.3847656250,4737.9487304688,3848.0769042969,3499.3588867188,,,
1.0781250000,0,4234.7436523438,4258.9741210938,4221.2822265625,4199.2309570313,3670.8974609375,4300.5126953125,4214.2309570313,4118.4614257813,3778.0769042969,3362.8205566406,4211.1538085938,4740.0000000000,3848.9743652344,3495.7692871094,,,
1.0859375000,0,4238.8461914063,4263.7177734375,4222.5639648438,4192.9487304688,3677.1794433594,4296.0258789063,4213.2050781250,4123.3334960938,3780.3845214844,3362.6923828125,4211.0258789063,4728.0771484375,3851.0256347656,3493.8461914063,,,
1.0937500000,0,4236.5385742188,4263.4614257813,4223.8461914063,4189.6152343750,3681.2819824219,4298.0771484375,4213.7177734375,4124.4873046875,3781.6667480469,3366.4101562500,4208.2050781250,4729.1025390625,3848.8461914063,3496.5385742188,,,
1.1015625000,0,4235.6411132813,4261.9228515625,4222.0512695313,4193.9741210938,3682.1794433594,4301.5385742188,4213.9741210938,4122.5639648438,3783.5898437500,3369.7436523438,4207.5639648438,4723.2050781250,3847.3076171875,3497.0512695313,,,
1.1093750000,0,4237.0512695313,4263.4614257813,4222.1796875000,4195.8974609375,3687.4357910156,4297.8203125000,4214.4873046875,4120.2563476563,3785.8974609375,3372.8205566406,4209.8715820313,4721.0258789063,3853.8461914063,3494.3588867188,,,
1.1171875000,0,4235.8974609375,4260.8974609375,4224.7436523438,4191.0258789063,3692.1794433594,4294.8715820313,4213.4614257813,4121.9228515625,3785.8974609375,3380.2563476563,4210.0000000000,4716.5385742188,3858.8461914063,3496.0256347656,,,
1.1250000000,0,4236.6665039063,4257.9487304688,4222.4360351563,4190.2563476563,3690.8974609375,4294.8715820313,4210.6411132813,4125.1284179688,3785.0000000000,3385.2563476563,4209.2309570313,4718.4614257813,3852.6923828125,3497.8205566406,,,
1.1328125000,0,4241.5385742188,4259.7436523438,4220.5126953125,4194.6152343750,3691.4101562500,4294.8715820313,4213.9741210938,4125.8974609375,3785.1281738281,3384.8718261719,4207.4360351563,4713.8461914063,3851.4101562500,3495.6411132813,,,
1.1406250000,0,4239.4873046875,4259.4873046875,4222.4360351563,4197.0512695313,3694.7436523438,4294.3588867188,4218.9741210938,4124.3588867188,3787.0512695313,3384.4870605469,4208.5898437500,4709.2309570313,3858.2050781250,3493.2050781250,,,
1.1484375000,0,4238.3334960938,4260.2563476563,4220.8974609375,4193.5898437500,3695.5129394531,4295.6411132813,4217.5639648438,4122.8203125000,3790.0000000000,3386.0256347656,4209.2309570313,4705.5126953125,3857.4357910156,3494.7436523438,,,
1.1562500000,0,4241.7949218750,4264.2309570313,4218.2050781250,4193.9741210938,3700.5129394531,4296.0258789063,4214.3588867188,4125.1284179688,3791.4101562500,3390.3845214844,4207.8203125000,4706.0258789063,3854.8718261719,3496.2819824219,,,
1.1640625000,0,4241.2822265625,4261.4101562500,4218.9741210938,4195.3847656250,3707.4357910156,4293.4614257813,4212.1796875000,4125.1284179688,3794.7436523438,3397.6923828125,4211.2822265625,4707.6923828125,3860.6411132813,3495.8974609375,,,
1.1718750000,0,4238.8461914063,4258.5898437500,4220.8974609375,4188.8461914063,3707.9487304688,4293.9741210938,4210.6411132813,4121.9228515625,3798.5898437500,3401.7949218750,4213.7177734375,4700.5126953125,3865.2563476563,3496.7949218750,,,
1.1796875000,0,4238.9741210938,4257.9487304688,4218.4614257813,4186.6665039063,3706.9230957031,4294.3588867188,4211.9228515625,4120.6411132813,3798.3332519531,3401.4101562500,4215.5126953125,4698.8461914063,3863.0769042969,3496.7949218750,,,
1.1875000000,0,4240.5126953125,4258.4614257813,4217.9487304688,4187.0512695313,3708.8461914063,4293.4614257813,4212.0512695313,4125.6411132813,3797.8205566406,3401.2819824219,4216.5385742188,4699.3588867188,3861.4101562500,3495.2563476563,,,
1.1953125000,0,4240.1284179688,4258.5898437500,4219.7436523438,4185.8974609375,3711.6667480469,4291.4101562500,4212.9487304688,4128.2050781250,3799.1025390625,3406.5385742188,4216.4101562500,4698.4614257813,3865.0000000000,3494.6154785156,,,
1.2031250000,0,4240.5126953125,4258.5898437500,4220.3847656250,4183.3334960938,3716.4101562500,4291.0258789063,4217.3076171875,4126.5385742188,3800.3845214844,3414.2307128906,4218.4614257813,4690.2563476563,3865.0000000000,3498.2050781250,,,
1.2109375000,0,4242.0512695313,4256.4101562500,4220.0000000000,4184.8715820313,3717.3076171875,4291.1538085938,4217.0512695313,4124.7436523438,3799.4870605469,3417.5642089844,4223.4614257813,4697.0512695313,3865.6411132813,3499.1025390625,,,
1.2187500000,0,4242.3076171875,4256.5385742188,4221.1538085938,4185.7690429688,3716.4101562500,4288.4614257813,4214.6152343750,4125.1284179688,3802.0512695313,3417.6923828125,4225.0000000000,4694.3588867188,3868.3332519531,3494.6154785156,,,
1.2265625000,0,4238.9741210938,4258.3334960938,4220.7690429688,4183.7177734375,3721.4101562500,4287.0512695313,4215.3847656250,4125.1284179688,3806.2819824219,3418.3332519531,4221.2822265625,4691.2822265625,3866.5385742188,3492.5642089844,,,
1.2343750000,0,4239.4873046875,4258.2050781250,4220.0000000000,4184.1025390625,3725.5129394531,4284.8715820313,4212.9487304688,4126.0258789063,3806.1538085938,3418.7180175781,4221.4101562500,4685.0000000000,3867.5642089844,3495.2563476563,,,
1.2421875000,0,4240.7690429688,4257.6923828125,4217.0512695313,4182.5639648438,3726.0256347656,4282.9487304688,4211.5385742188,4126.5385742188,3807.6923828125,3423.8461914063,4221.7949218750,4686.0258789063,3874.2307128906,3496.0256347656,,,
1.2500000000,0,4238.7177734375,4260.3847656250,4212.6923828125,4176.1538085938,3732.9487304688,4284.6152343750,4216.5385742188,4126.1538085938,3813.2050781250,3432.3076171875,4223.4614257813,4678.8461914063,3880.2563476563,3495.1281738281,,,
1.2578125000,0,4237.9487304688,4261.5385742188,4225.3847656250,4172.0512695313,3743.3332519531,4283.5898437500,4217.5639648438,4128.2050781250,3814.4870605469,3433.9743652344,4226.2822265625,4674.1025390625,3864.3588867188,3495.2563476563,,,
1.2656250000,0,4240.0000000000,4257.8203125000,4257.5639648438,4174.2309570313,3746.5385742188,4281.1538085938,4214.4873046875,4128.7177734375,3814.6154785156,3432.0512695313,4227.6923828125,4668.8461914063,3830.2563476563,3495.0000000000,,,
1.2734375000,0,4238.7177734375,4254.4873046875,4274.1025390625,4176.0258789063,3740.5129394531,4282.8203125000,4214.3588867188,4126.5385742188,3815.2563476563,3433.4614257813,4229.1025390625,4676.1538085938,3810.8974609375,3495.8974609375,,,
1.2812500000,0,4239.3588867188,4254.6152343750,4269.8715820313,4172.0512695313,3737.3076171875,4284.4873046875,4216.9228515625,4128.4614257813,3816.2819824219,3438.8461914063,4228.9741210938,4681.7949218750,3812.3076171875,3497.1794433594,,,
1.2890625000,0,4241.7949218750,4254.6152343750,4268.9741210938,4169.4873046875,3728.4614257813,4281.4101562500,4216.1538085938,4130.8974609375,3817.9487304688,3445.7692871094,4227.8203125000,4690.7690429688,3813.7180175781,3495.6411132813,,,
1.2968750000,0,4238.8461914063,4255.3847656250,4273.0771484375,4169.4873046875,3682.6923828125,4282.3076171875,4215.7690429688,4127.1796875000,3819.6154785156,3449.6154785156,4227.6923828125,4731.4101562500,3812.1794433594,3495.0000000000,,,
1.3046875000,0,4236.0258789063,4255.7690429688,4271.6665039063,4168.9741210938,3628.2050781250,4281.7949218750,4216.6665039063,4125.1284179688,3819.3588867188,3448.5898437500,4228.2050781250,4787.6923828125,3815.0000000000,3494.8718261719,,,
1.3125000000,0,4236.4101562500,4254.8715820313,4270.8974609375,4168.9741210938,3608.8461914063,4278.9741210938,4214.6152343750,4127.8203125000,3818.2050781250,3449.7436523438,4228.3334960938,4813.5898437500,3816.1538085938,3493.5898437500,,,
1.3203125000,0,4234.4873046875,4256.2822265625,4271.7949218750,4169.6152343750,3600.2563476563,4280.8974609375,4214.1025390625,4129.6152343750,3820.2563476563,3452.4357910156,4228.4614257813,4816.2822265625,3819.7436523438,3493.0769042969,,,
1.3281250000,0,4233.3334960938,4258.0771484375,4271.9228515625,4171.6665039063,3589.6154785156,4281.1538085938,4214.7436523438,4128.2050781250,3826.0256347656,3455.0000000000,4228.3334960938,4825.3847656250,3823.2050781250,3494.6154785156,,,
1.3359375000,0,4238.5898437500,4258.0771484375,4270.6411132813,4171.5385742188,3602.6923828125,4278.4614257813,4214.3588867188,4127.4360351563,3828.5898437500,3460.8974609375,4226.9228515625,4810.5126953125,3821.9230957031,3495.1281738281,,,
1.3437500000,0,4241.0258789063,4256.6665039063,4267.1796875000,4170.6411132813,3617.1794433594,4278.2050781250,4211.9228515625,4128.3334960938,3827.9487304688,3465.8974609375,4228.2050781250,4794.4873046875,3826.2819824219,3493.7180175781,,,
1.3515625000,0,4240.0000000000,4256.5385742188,4268.8461914063,4170.0000000000,3618.7180175781,4280.5126953125,4215.6411132813,4130.7690429688,3830.3845214844,3465.2563476563,4231.5385742188,4788.3334960938,3833.0769042969,3494.7436523438,,,
1.3593750000,0,4240.5126953125,4257.4360351563,4270.1284179688,4170.3847656250,3622.8205566406,4280.7690429688,4217.0512695313,4130.7690429688,3833.7180175781,3465.6411132813,4231.0258789063,4795.0000000000,3830.2563476563,3494.6154785156,,,
1.3671875000,0,4242.0512695313,4256.7949218750,4266.0258789063,4171.1538085938,3617.8205566406,4278.2050781250,4211.5385742188,4130.3847656250,3834.6154785156,3468.8461914063,4226.1538085938,4792.5639648438,3830.7692871094,3493.5898437500,,,
1.3750000000,0,4240.6411132813,4256.6665039063,4261.0258789063,4168.7177734375,3608.8461914063,4274.8715820313,4210.2563476563,4128.8461914063,3833.2050781250,3471.4101562500,4225.6411132813,4794.4873046875,3836.9230957031,3495.2563476563,,,
1.3828125000,0,4240.7690429688,4256.1538085938,4262.8203125000,4167.5639648438,3616.0256347656,4274.6152343750,4213.9741210938,4129.1025390625,3831.9230957031,3475.8974609375,4229.2309570313,4783.2050781250,3837.9487304688,3499.2307128906,,,
1.3906250000,0,4241.1538085938,4248.4614257813,4262.6923828125,4168.9741210938,3620.5129394531,4276.1538085938,4213.4614257813,4129.8715820313,3833.8461914063,3480.8974609375,4229.7436523438,4781.1538085938,3840.5129394531,3502.0512695313,,,
1.3984375000,0,4241.9228515625,4238.7177734375,4259.6152343750,4169.8715820313,3616.5385742188,4275.5126953125,4210.1284179688,4128.4614257813,3836.2819824219,3481.6667480469,4231.2822265625,4781.4101562500,3844.6154785156,3510.3845214844,,,
1.4062500000,0,4242.4360351563,4231.2822265625,4257.1796875000,4169.8715820313,3621.0256347656,4275.3847656250,4212.4360351563,4128.8461914063,3836.4101562500,3482.9487304688,4234.1025390625,4779.4873046875,3844.3588867188,3520.8974609375,,,
1.4140625000,0,4242.6923828125,4225.6411132813,4256.5385742188,4170.2563476563,3625.8974609375,4274.7436523438,4217.0512695313,4132.0512695313,3837.8205566406,3487.1794433594,4230.2563476563,4774.1025390625,3846.2819824219,3523.7180175781,,,
1.4218750000,0,4241.4101562500,4224.7436523438,4256.2822265625,4170.0000000000,3625.0000000000,4275.5126953125,4216.2822265625,4131.2822265625,3839.8718261719,3490.3845214844,4225.1284179688,4778.4614257813,3849.3588867188,3519.6154785156,,,
1.4296875000,0,4241.0258789063,4232.4360351563,4257.4360351563,4170.2563476563,3625.6411132813,4275.7690429688,4214.8715820313,4130.3847656250,3845.5129394531,3493.7180175781,4230.0000000000,4783.2050781250,3849.7436523438,3513.0769042969,,,
1.4375000000,0,4240.0000000000,4236.6665039063,4258.9741210938,4169.2309570313,3623.8461914063,4269.6152343750,4215.3847656250,4132.3076171875,3850.6411132813,3496.4101562500,4232.9487304688,4785.0000000000,3849.2307128906,3508.0769042969,,,
1.4453125000,0,4240.2563476563,4235.2563476563,4257.1796875000,4167.4360351563,3607.0512695313,4264.6152343750,4215.7690429688,4131.9228515625,3849.1025390625,3496.7949218750,4228.5898437500,4797.4360351563,3849.4870605469,3506.9230957031,,,
1.4531250000,0,4240.2563476563,4237.5639648438,4252.8203125000,4167.8203125000,3580.0000000000,4265.6411132813,4215.0000000000,4131.5385742188,3846.9230957031,3501.1538085938,4226.1538085938,4824.7436523438,3852.0512695313,3508.0769042969,,,
1.4609375000,0,4232.9487304688,4240.0000000000,4254.2309570313,4168.8461914063,3537.8205566406,4266.4101562500,4213.9741210938,4133.5898437500,3848.5898437500,3507.1794433594,4229.2309570313,4874.6152343750,3856.6667480469,3505.6411132813,,,
1.4687500000,0,4228.7177734375,4239.8715820313,4258.0771484375,4168.4614257813,3471.7949218750,4263.2050781250,4213.4614257813,4133.3334960938,3849.7436523438,3506.9230957031,4231.5385742188,4943.5898437500,3856.9230957031,3504.1025390625,,,
1.4765625000,0,4228.5898437500,4239.6152343750,4252.5639648438,4166.5385742188,3398.2050781250,4264.2309570313,4212.9487304688,4131.9228515625,3847.9487304688,3507.4357910156,4229.8715820313,5017.5639648438,3858.4614257813,3504.6154785156,,,
1.4843750000,0,4226.2822265625,4240.3847656250,4247.6923828125,4166.0258789063,3358.3332519531,4265.8974609375,4212.0512695313,4131.7949218750,3849.8718261719,3511.9230957031,4227.5639648438,5043.4614257813,3868.7180175781,3504.2307128906,,,
1.4921875000,0,4228.0771484375,4241.9228515625,4247.4360351563,4170.3847656250,3436.6667480469,4264.3588867188,4213.9741210938,4135.0000000000,3852.5642089844,3513.0769042969,4227.5639648438,4947.3076171875,3875.0000000000,3503.3332519531,,,
1.5000000000,0,4241.5385742188,4245.0000000000,4243.7177734375,4171.9228515625,3626.4101562500,4265.1284179688,4217.6923828125,4136.9228515625,3852.6923828125,3516.1538085938,4229.8715820313,4738.4614257813,3878.3332519531,3502.5642089844,,,
1.5078125000,0,4248.9741210938,4246.9228515625,4234.7436523438,4168.7177734375,3767.1794433594,4266.5385742188,4218.9741210938,4136.0258789063,3853.2050781250,3523.7180175781,4232.4360351563,4607.9487304688,3886.1538085938,3501.6667480469,,,
1.5156250000,0,4246.6665039063,4244.1025390625,4230.1284179688,4169.1025390625,3778.9743652344,4266.0258789063,4217.0512695313,4135.8974609375,3856.0256347656,3523.9743652344,4233.7177734375,4608.8461914063,3891.6667480469,3497.8205566406,,,
1.5234375000,0,4245.7690429688,4243.0771484375,4228.8461914063,4169.4873046875,3763.2050781250,4264.4873046875,4214.8715820313,4136.4101562500,3859.8718261719,3521.1538085938,4234.1025390625,4626.7949218750,3890.7692871094,3494.1025390625,,,
1.5312500000,0,4246.4101562500,4246.0258789063,4229.1025390625,4166.2822265625,3773.3332519531,4264.8715820313,4215.0000000000,4135.5126953125,3862.3076171875,3525.8974609375,4233.8461914063,4608.8461914063,3890.3845214844,3494.8718261719,,,
1.5390625000,0,4242.3076171875,4246.4101562500,4231.4101562500,4166.7949218750,3771.5385742188,4264.1025390625,4215.8974609375,4136.0258789063,3861.9230957031,3529.3588867188,4233.0771484375,4617.4360351563,3892.5642089844,3496.9230957031,,,
1.5468750000,0,4240.6411132813,4244.1025390625,4231.2822265625,4169.7436523438,3760.7692871094,4263.2050781250,4215.7690429688,4139.1025390625,3862.3076171875,3529.6154785156,4231.6665039063,4623.5898437500,3890.8974609375,3497.5642089844,,,
1.5546875000,0,4242.9487304688,4243.7177734375,4228.9741210938,4168.7177734375,3759.3588867188,4264.2309570313,4214.6152343750,4137.5639648438,3865.6411132813,3535.5129394531,4231.1538085938,4620.8974609375,3889.4870605469,3497.3076171875,,,
1.5625000000,0,4246.2822265625,4246.5385742188,4228.3334960938,4166.7949218750,3759.8718261719,4264.4873046875,4216.2822265625,4136.5385742188,3867.5642089844,3540.2563476563,4232.4360351563,4621.1538085938,3892.3076171875,3497.5642089844,,,
1.5703125000,0,4245.6411132813,4245.7690429688,4228.8461914063,4166.4101562500,3760.8974609375,4262.5639648438,4216.1538085938,4137.9487304688,3865.8974609375,3538.7180175781,4233.5898437500,4624.7436523438,3894.4870605469,3495.3845214844,,,
1.5781250000,0,4244.6152343750,4243.8461914063,4230.7690429688,4167.6923828125,3762.9487304688,4261.9228515625,4215.7690429688,4139.4873046875,3867.3076171875,3540.0000000000,4235.1284179688,4620.8974609375,3895.7692871094,3495.7692871094,,,
1.5859375000,0,4245.0000000000,4244.4873046875,4228.7177734375,4168.5898437500,3766.5385742188,4264.2309570313,4217.3076171875,4138.0771484375,3868.7180175781,3544.8718261719,4233.2050781250,4617.4360351563,3894.6154785156,3496.9230957031,,,
1.5937500000,0,4244.4873046875,4245.3847656250,4225.6411132813,4166.7949218750,3770.0000000000,4260.7690429688,4213.4614257813,4137.5639648438,3867.9487304688,3546.1538085938,4231.2822265625,4616.7949218750,3895.0000000000,3497.3076171875,,,
1.6015625000,0,4244.3588867188,4243.2050781250,4227.6923828125,4166.4101562500,3771.7949218750,4256.5385742188,4211.4101562500,4139.4873046875,3871.1538085938,3548.5898437500,4236.7949218750,4614.1025390625,3894.7436523438,3496.6667480469,,,
1.6093750000,0,4243.7177734375,4243.7177734375,4234.4873046875,4168.2050781250,3772.4357910156,4259.8715820313,4213.4614257813,4141.6665039063,3877.5642089844,3554.2307128906,4239.3588867188,4613.3334960938,3894.7436523438,3496.0256347656,,,
1.6171875000,0,4245.1284179688,4248.4614257813,4237.6923828125,4169.1025390625,3777.5642089844,4265.7690429688,4213.8461914063,4140.6411132813,3879.2307128906,3556.7949218750,4237.9487304688,4654.1025390625,3893.9743652344,3494.8718261719,,,
1.6250000000,0,4247.9487304688,4250.3847656250,4234.7436523438,4168.9741210938,3792.4357910156,4260.8974609375,4213.5898437500,4138.8461914063,3878.7180175781,3556.0256347656,4236.9228515625,4754.7436523438,3892.1794433594,3493.8461914063,,,
1.6328125000,0,4246.2822265625,4247.8203125000,4233.0771484375,4167.9487304688,3773.3332519531,4254.7436523438,4217.8203125000,4139.3588867188,3880.7692871094,3556.5385742188,4240.1284179688,4565.2563476563,3891.7949218750,3493.5898437500,,,
1.6406250000,0,4245.2563476563,4246.1538085938,4232.8203125000,4163.9741210938,3753.5898437500,4259.8715820313,4217.1796875000,4139.3588867188,3881.9230957031,3559.3588867188,4243.2050781250,4419.3588867188,3892.6923828125,3493.9743652344,,,
1.6484375000,0,4248.7177734375,4248.3334960938,4233.4614257813,4164.4873046875,3810.6411132813,4260.6411132813,4212.8203125000,4140.3847656250,3880.7692871094,3563.5898437500,4238.0771484375,4883.0771484375,3891.4101562500,3493.2050781250,,,
1.6562500000,0,4236.0258789063,4233.3334960938,4227.4360351563,4149.6152343750,3692.9487304688,4247.1796875000,4210.8974609375,4138.8461914063,3881.5385742188,3568.5898437500,4231.5385742188,3923.4614257813,3890.1281738281,3490.3845214844,,,
1.6640625000,0,4219.8715820313,4208.5898437500,4215.2563476563,4122.4360351563,3425.7692871094,4246.6665039063,4208.8461914063,4135.2563476563,3883.5898437500,3570.0000000000,4235.7690429688,1849.1025390625,3902.9487304688,3494.3588867188,,,
1.6718750000,0,4229.6152343750,4211.2822265625,4199.6152343750,4128.9741210938,3496.4101562500,4260.3847656250,4212.5639648438,4134.2309570313,3880.7692871094,3571.9230957031,4236.5385742188,2556.7949218750,3927.3076171875,3501.5385742188,,,
1.6796875000,0,4248.4614257813,4229.8715820313,4183.0771484375,4155.6411132813,3788.8461914063,4260.0000000000,4218.3334960938,4140.1284179688,3880.3845214844,3573.8461914063,4233.0771484375,4919.3588867188,3953.8461914063,3508.5898437500,,,
1.6875000000,0,4246.6665039063,4224.8715820313,4169.2309570313,4164.2309570313,3822.3076171875,4253.3334960938,4217.1796875000,4146.5385742188,3887.0512695313,3572.4357910156,4238.9741210938,5077.8203125000,3976.9230957031,3518.8461914063,,,
1.6953125000,0,4242.6923828125,4217.4360351563,4172.3076171875,4165.8974609375,3735.1281738281,4258.3334960938,4216.6665039063,4145.2563476563,3889.4870605469,3576.5385742188,4240.0000000000,4327.1796875000,3977.0512695313,3521.7949218750,,,
1.7031250000,0,4244.4873046875,4228.9741210938,4183.0771484375,4171.2822265625,3781.0256347656,4258.7177734375,4218.7177734375,4140.1284179688,3886.5385742188,3585.2563476563,4227.5639648438,4715.0000000000,3962.1794433594,3511.5385742188,,,
1.7109375000,0,4243.9741210938,4230.1284179688,4178.9741210938,4169.6152343750,3801.2819824219,4251.5385742188,4218.0771484375,4137.9487304688,3889.8718261719,3587.0512695313,4225.2563476563,4854.6152343750,3963.0769042969,3506.9230957031,,,
1.7187500000,0,4245.2563476563,4222.6923828125,4170.0000000000,4168.3334960938,3775.1281738281,4253.5898437500,4215.5126953125,4142.4360351563,3893.7180175781,3584.8718261719,4229.6152343750,4594.1025390625,3977.0512695313,3517.1794433594,,,
1.7265625000,0,4246.1538085938,4222.9487304688,4171.1538085938,4171.0258789063,3780.7692871094,4257.3076171875,4215.8974609375,4145.0000000000,3892.5642089844,3587.0512695313,4225.3847656250,4661.2822265625,3981.7949218750,3521.4101562500,,,
1.7343750000,0,4246.2822265625,4224.4873046875,4168.2050781250,4168.8461914063,3773.7180175781,4251.0258789063,4215.7690429688,4140.1284179688,3895.6411132813,3590.1281738281,4223.8461914063,4642.3076171875,3982.8205566406,3513.7180175781,,,
1.7421875000,0,4248.4614257813,4224.2309570313,4160.5126953125,4165.7690429688,3777.0512695313,4248.8461914063,4213.8461914063,4135.2563476563,3897.0512695313,3588.3332519531,4224.3588867188,4627.8203125000,3986.5385742188,3508.8461914063,,,
1.7500000000,0,4247.4360351563,4222.8203125000,4159.6152343750,4159.1025390625,3784.6154785156,4251.4101562500,4213.3334960938,4142.1796875000,3894.6154785156,3588.8461914063,4225.1284179688,4640.2563476563,3993.4614257813,3512.3076171875,,,
1.7578125000,0,4245.1284179688,4219.8715820313,4156.1538085938,4154.2309570313,3776.4101562500,4250.7690429688,4211.9228515625,4148.0771484375,3896.1538085938,3597.1794433594,4226.9228515625,4645.5126953125,4001.4101562500,3516.9230957031,,,
1.7656250000,0,4245.1284179688,4220.5126953125,4152.4360351563,4157.0512695313,3768.8461914063,4248.3334960938,4212.4360351563,4142.0512695313,3899.2307128906,3604.7436523438,4227.6923828125,4649.3588867188,4002.0512695313,3513.7180175781,,,
1.7734375000,0,4242.6923828125,4226.4101562500,4165.1284179688,4158.8461914063,3772.4357910156,4250.2563476563,4213.0771484375,4137.0512695313,3900.2563476563,3602.8205566406,4226.5385742188,4644.2309570313,3988.7180175781,3510.2563476563,,,
1.7812500000,0,4240.7690429688,4228.3334960938,4185.0000000000,4155.6411132813,3777.8205566406,4250.1284179688,4213.8461914063,4141.4101562500,3900.5129394531,3600.6411132813,4225.2563476563,4649.4873046875,3970.8974609375,3512.4357910156,,,
1.7890625000,0,4242.4360351563,4229.7436523438,4192.0512695313,4153.4614257813,3777.1794433594,4248.7177734375,4214.2309570313,4143.9741210938,3900.0000000000,3605.7692871094,4227.6923828125,4652.3076171875,3961.2819824219,3510.0000000000,,,
1.7968750000,0,4243.5898437500,4232.8203125000,4191.1538085938,4154.1025390625,3776.4101562500,4249.3588867188,4213.5898437500,4142.9487304688,3901.2819824219,3606.2819824219,4233.0771484375,4639.3588867188,3962.3076171875,3506.6667480469,,,
1.8046875000,0,4242.3076171875,4233.9741210938,4193.2050781250,4153.0771484375,3780.0000000000,4248.8461914063,4214.3588867188,4143.8461914063,3906.5385742188,3602.5642089844,4237.4360351563,4639.8715820313,3962.3076171875,3507.1794433594,,,
1.8125000000,0,4245.1284179688,4233.3334960938,4197.0512695313,4151.2822265625,3782.1794433594,4248.4614257813,4216.7949218750,4145.2563476563,3909.7436523438,3609.4870605469,4238.2050781250,4630.8974609375,3959.1025390625,3504.1025390625,,,
1.8203125000,0,4245.8974609375,4231.2822265625,4192.4360351563,4151.1538085938,3776.1538085938,4248.8461914063,4216.6665039063,4143.2050781250,3907.4357910156,3619.3588867188,4237.4360351563,4608.0771484375,3960.5129394531,3499.3588867188,,,
1.8281250000,0,4246.5385742188,4230.1284179688,4190.5126953125,4150.2563476563,3772.8205566406,4249.2309570313,4215.2563476563,4140.7690429688,3907.8205566406,3620.0000000000,4235.2563476563,4599.3588867188,3962.4357910156,3502.0512695313,,,
1.8359375000,0,4245.5126953125,4230.1284179688,4198.9741210938,4141.6665039063,3780.1281738281,4248.8461914063,4215.8974609375,4144.4873046875,3912.8205566406,3616.7949218750,4239.3588867188,4639.8715820313,3957.5642089844,3506.2819824219,,,
1.8437500000,0,4244.4873046875,4233.5898437500,4208.2050781250,4128.0771484375,3790.7692871094,4249.6152343750,4215.6411132813,4149.8715820313,3916.4101562500,3619.6154785156,4262.3076171875,4711.7949218750,3954.6154785156,3509.6154785156,,,
1.8515625000,0,4245.0000000000,4233.2050781250,4215.0000000000,4121.1538085938,3793.2050781250,4249.6152343750,4211.6665039063,4147.0512695313,3919.3588867188,3622.0512695313,4279.3588867188,4748.5898437500,3948.5898437500,3511.9230957031,,,
1.8593750000,0,4245.7690429688,4230.2563476563,4227.8203125000,4118.5898437500,3782.4357910156,4247.3076171875,4214.7436523438,4144.1025390625,3923.5898437500,3618.7180175781,4275.8974609375,4665.7690429688,3933.8461914063,3508.5898437500,,,
1.8671875000,0,4243.7177734375,4231.5385742188,4230.5126953125,4111.7949218750,3774.4870605469,4246.0258789063,4218.8461914063,4146.7949218750,3922.9487304688,3621.6667480469,4275.7690429688,4562.9487304688,3931.4101562500,3502.3076171875,,,
1.8750000000,0,4240.3847656250,4230.6411132813,4216.5385742188,4106.6665039063,3772.9487304688,4247.3076171875,4213.0771484375,4146.1538085938,3920.5129394531,3631.9230957031,4279.1025390625,4543.3334960938,3948.3332519531,3498.5898437500,,,
1.8828125000,0,4239.4873046875,4227.1796875000,4218.9741210938,4109.8715820313,3758.2050781250,4247.8203125000,4209.7436523438,4144.3588867188,3921.6667480469,3637.3076171875,4274.6152343750,4461.2822265625,3947.5642089844,3499.4870605469,,,
1.8906250000,0,4242.0512695313,4227.6923828125,4236.1538085938,4107.6923828125,3742.8205566406,4245.0000000000,4213.4614257813,4144.8715820313,3923.3332519531,3635.1281738281,4275.5126953125,4239.4873046875,3928.0769042969,3502.5642089844,,,
1.8984375000,0,4242.5639648438,4223.2050781250,4239.4873046875,4106.2822265625,3757.0512695313,4243.7177734375,4215.6411132813,4144.3588867188,3923.8461914063,3634.1025390625,4274.4873046875,4069.4870605469,3923.2050781250,3506.0256347656,,,
1.9062500000,0,4238.2050781250,4214.6152343750,4233.5898437500,4112.9487304688,3770.3845214844,4245.0000000000,4213.5898437500,4143.5898437500,3925.0000000000,3636.1538085938,4263.0771484375,4023.7180175781,3927.3076171875,3504.4870605469,,,
1.9140625000,0,4237.6923828125,4210.1284179688,4237.3076171875,4115.3847656250,3749.2307128906,4248.5898437500,4215.0000000000,4146.2822265625,3926.5385742188,3637.8205566406,4260.6411132813,3923.5898437500,3923.8461914063,3510.8974609375,,,
1.9218750000,0,4238.0771484375,4190.1284179688,4238.7177734375,4112.5639648438,3721.6667480469,4246.0258789063,4214.7436523438,4147.9487304688,3927.3076171875,3637.0512695313,4264.3588867188,3735.1281738281,3922.3076171875,3532.1794433594,,,
1.9296875000,0,4233.8461914063,4172.1796875000,4229.1025390625,4111.6665039063,3708.0769042969,4240.6411132813,4212.4360351563,4143.8461914063,3928.5898437500,3636.6667480469,4254.1025390625,3573.0769042969,3931.7949218750,3542.6923828125,,,
1.9375000000,0,4230.6411132813,4184.8715820313,4219.8715820313,4111.6665039063,3696.9230957031,4238.9741210938,4211.6665039063,4138.9741210938,3925.5129394531,3644.4870605469,4245.8974609375,3519.4870605469,3938.9743652344,3528.4614257813,,,
1.9453125000,0,4233.3334960938,4183.0771484375,4197.9487304688,4109.4873046875,3677.5642089844,4243.3334960938,4213.0771484375,4139.2309570313,3920.8974609375,3652.5642089844,4248.3334960938,3475.8974609375,3959.1025390625,3528.9743652344,,,
1.9531250000,0,4233.2050781250,4144.2309570313,4151.0258789063,4104.8715820313,3663.5898437500,4243.0771484375,4212.5639648438,4138.9741210938,3920.8974609375,3650.5129394531,4246.0258789063,3537.8205566406,4016.9230957031,3554.1025390625,,,
1.9609375000,0,4233.7177734375,4123.5898437500,4128.2050781250,4100.0000000000,3667.9487304688,4238.5898437500,4211.6665039063,4136.0258789063,3919.3588867188,3648.7180175781,4245.5126953125,3774.3588867188,4053.8461914063,3568.0769042969,,,
1.9687500000,0,4234.8715820313,4122.3076171875,4155.1284179688,4095.1281738281,3677.8205566406,4240.3847656250,4213.2050781250,4134.4873046875,3912.3076171875,3652.5642089844,4246.7949218750,3984.6154785156,4015.8974609375,3570.0000000000,,,
1.9765625000,0,4232.0512695313,4105.7690429688,4184.1025390625,4087.9487304688,3647.0512695313,4241.6665039063,4210.8974609375,4133.5898437500,3910.7692871094,3654.7436523438,4243.9741210938,3924.8718261719,3966.5385742188,3582.3076171875,,,
1.9843750000,0,4224.8715820313,4086.9230957031,4188.4614257813,4081.6667480469,3566.5385742188,4239.8715820313,4206.2822265625,4131.5385742188,3917.5642089844,3652.3076171875,4238.3334960938,3671.2819824219,3960.0000000000,3595.6411132813,,,
1.9921875000,0,4219.4873046875,4080.2563476563,4192.9487304688,4079.1025390625,3496.7949218750,4240.0000000000,4208.4614257813,4137.5639648438,3919.6154785156,3652.6923828125,4236.7949218750,3482.3076171875,3960.3845214844,3599.2307128906,,,
2.0000000000,0,4218.8461914063,4075.8974609375,4194.8715820313,4071.9230957031,3474.6154785156,4236.9228515625,4211.9228515625,4141.9228515625,3917.8205566406,3659.4870605469,4238.8461914063,3450.7692871094,3951.4101562500,3600.0000000000,,,
2.0078125000,0,4219.7436523438,4074.2307128906,4182.6923828125,4066.5385742188,3465.7692871094,4232.6923828125,4208.5898437500,4139.3588867188,3921.1538085938,3667.1794433594,4239.2309570313,3435.2563476563,3959.7436523438,3601.0256347656,,,
2.0156250000,0,4219.4873046875,4078.9743652344,4159.6152343750,4065.6411132813,3438.5898437500,4232.9487304688,4209.1025390625,4142.0512695313,3925.5129394531,3668.4614257813,4238.2050781250,3338.2050781250,3991.2819824219,3599.1025390625,,,
2.0234375000,0,4219.8715820313,4086.5385742188,4140.7690429688,4066.1538085938,3408.5898437500,4236.1538085938,4211.6665039063,4144.7436523438,3928.0769042969,3666.4101562500,4238.5898437500,3284.8718261719,4017.6923828125,3592.9487304688,,,
2.0312500000,0,4219.1025390625,4097.5639648438,4143.5898437500,4067.5642089844,3396.9230957031,4234.1025390625,4209.4873046875,4142.6923828125,3927.9487304688,3667.1794433594,4244.4873046875,3291.2819824219,4016.6667480469,3581.1538085938,,,
2.0390625000,0,4216.6665039063,4107.1796875000,4165.1284179688,4062.5642089844,3384.4870605469,4233.9741210938,4209.1025390625,4143.4614257813,3929.6154785156,3669.1025390625,4245.2563476563,3223.5898437500,3992.6923828125,3569.3588867188,,,
2.0468750000,0,4216.5385742188,4113.3334960938,4170.2563476563,4054.7436523438,3356.5385742188,4233.4614257813,4211.2822265625,4146.1538085938,3930.8974609375,3669.4870605469,4241.5385742188,3102.6923828125,3981.5385742188,3560.6411132813,,,
2.0546875000,0,4216.0258789063,4120.6411132813,4145.1284179688,4055.8974609375,3330.6411132813,4232.9487304688,4210.5126953125,4144.2309570313,3928.8461914063,3670.2563476563,4242.0512695313,3009.6154785156,4003.7180175781,3554.1025390625,,,
2.0625000000,0,4214.6152343750,4129.7436523438,4099.8715820313,4057.9487304688,3321.1538085938,4233.9741210938,4211.5385742188,4146.2822265625,3929.3588867188,3674.7436523438,4246.1538085938,2959.6154785156,4061.7949218750,3547.0512695313,,,
2.0703125000,0,4213.4614257813,4140.5126953125,4021.9230957031,4053.2050781250,3316.6667480469,4235.3847656250,4212.0512695313,4148.2050781250,3935.3845214844,3681.6667480469,4245.3847656250,2954.7436523438,4157.0512695313,3540.6411132813,,,
2.0781250000,0,4214.2309570313,4148.0771484375,3944.4870605469,4051.7949218750,3303.4614257813,4235.1284179688,4209.2309570313,4146.7949218750,3941.2819824219,3684.6154785156,4241.9228515625,2865.5129394531,4233.7177734375,3530.1281738281,,,
2.0859375000,0,4212.6923828125,4153.0771484375,3923.5898437500,4053.8461914063,3280.2563476563,4232.0512695313,4209.2309570313,4148.8461914063,3942.3076171875,3683.5898437500,4243.4614257813,2772.4357910156,4237.6923828125,3523.5898437500,,,
2.0937500000,0,4216.6665039063,4164.3588867188,3933.3332519531,4059.2307128906,3329.2307128906,4234.8715820313,4213.0771484375,4147.3076171875,3941.7949218750,3683.7180175781,4242.5639648438,2681.6667480469,4224.4873046875,3526.6667480469,,,
2.1015625000,0,4207.3076171875,4151.9228515625,3914.8718261719,4046.0256347656,3264.8718261719,4232.9487304688,4207.9487304688,4143.7177734375,3942.6923828125,3684.6154785156,4232.4360351563,2068.0769042969,4246.0258789063,3526.5385742188,,,
2.1093750000,0,4172.6923828125,4097.4360351563,3887.6923828125,3996.7949218750,2768.8461914063,4221.9228515625,4200.6411132813,4150.8974609375,3953.3332519531,3684.7436523438,4226.4101562500,1041.9230957031,4265.7690429688,3523.7180175781,,,
2.1171875000,0,4158.0771484375,4077.3076171875,3895.7692871094,3976.1538085938,2425.3845214844,4224.8715820313,4206.4101562500,4154.8715820313,3966.7949218750,3687.3076171875,4229.1025390625,629.1025390625,4260.5126953125,3526.1538085938,,,
2.1250000000,0,4167.8203125000,4096.4101562500,3905.0000000000,3990.5129394531,2545.6411132813,4232.4360351563,4211.0258789063,4151.2822265625,3970.2563476563,3690.1281738281,4227.0512695313,777.0512695313,4263.7177734375,3529.4870605469,,,
2.1328125000,0,4142.9487304688,4060.2563476563,3889.2307128906,3960.8974609375,2308.8461914063,4221.4101562500,4199.8715820313,4155.0000000000,3972.9487304688,3692.1794433594,4220.5126953125,803.5897216797,4271.1538085938,3526.7949218750,,,
2.1406250000,0,4095.8974609375,3991.1538085938,3882.0512695313,3902.6923828125,1569.3590087891,4206.4101562500,4190.5126953125,4160.5126953125,3985.2563476563,3697.8205566406,4220.8974609375,704.3589477539,4271.9228515625,3522.5642089844,,,
2.1484375000,0,4065.5129394531,3949.6154785156,3903.5898437500,3869.7436523438,1033.3333740234,4202.6923828125,4189.2309570313,4159.3588867188,4003.7180175781,3701.7949218750,4220.8974609375,789.4871826172,4258.5898437500,3519.7436523438,,,
2.1562500000,0,4029.2307128906,3898.4614257813,3927.6923828125,3834.7436523438,822.6923217773,4199.8715820313,4185.2563476563,4159.2309570313,4023.5898437500,3700.2563476563,4212.8203125000,806.0256347656,4231.2822265625,3521.0256347656,,,
2.1640625000,0,3992.9487304688,3843.2050781250,3938.9743652344,3791.4101562500,727.8204956055,4197.5639648438,4184.8715820313,4160.5126953125,4040.5129394531,3696.7949218750,4208.4614257813,805.5128173828,4215.2563476563,3524.6154785156,,,
2.1718750000,0,3987.0512695313,3827.6923828125,3946.6667480469,3773.4614257813,763.2051391602,4199.8715820313,4190.0000000000,4159.3588867188,4044.2307128906,3697.3076171875,4211.0258789063,804.4871826172,4217.6923828125,3521.7949218750,,,
2.1796875000,0,3985.0000000000,3821.1538085938,3951.5385742188,3780.0000000000,786.6666870117,4199.7436523438,4190.8974609375,4160.5126953125,4042.6923828125,3703.2050781250,4199.4873046875,803.7179565430,4221.7949218750,3520.3845214844,,,
2.1875000000,0,3986.4101562500,3827.6923828125,3966.4101562500,3812.8205566406,767.8204956055,4203.2050781250,4195.8974609375,4161.9228515625,4044.7436523438,3706.9230957031,4170.8974609375,805.1281738281,4213.2050781250,3521.2819824219,,,
2.1953125000,0,3993.3332519531,3851.5385742188,3969.2307128906,3841.9230957031,808.5897216797,4205.1284179688,4200.2563476563,4164.3588867188,4046.0256347656,3707.3076171875,4149.8715820313,805.3845825195,4210.8974609375,3520.8974609375,,,
2.2031250000,0,3979.8718261719,3843.8461914063,3954.6154785156,3829.8718261719,806.2820434570,4198.2050781250,4196.0258789063,4165.7690429688,4047.5642089844,3711.1538085938,4150.2563476563,805.5128173828,4216.1538085938,3519.6154785156,,,
2.2109375000,0,3992.9487304688,3855.2563476563,3981.5385742188,3840.7692871094,802.0512695313,4202.6923828125,4203.2050781250,4163.4614257813,4044.3588867188,3716.0256347656,4154.4873046875,805.2564086914,4190.2563476563,3516.7949218750,,,
2.2187500000,0,4038.5898437500,3915.3845214844,4015.6411132813,3887.4357910156,807.5640869141,4213.7177734375,4215.6411132813,4161.1538085938,4032.1794433594,3716.0256347656,4150.7690429688,805.5128173828,4151.2822265625,3517.1794433594,,,
2.2265625000,0,4035.8974609375,3919.8718261719,3998.4614257813,3881.1538085938,803.9743652344,4206.6665039063,4209.3588867188,4162.5639648438,4028.9743652344,3715.5129394531,4152.0512695313,805.5128173828,4150.3847656250,3523.9743652344,,,
2.2343750000,0,3983.5898437500,3853.7180175781,3978.4614257813,3824.2307128906,807.4359130859,4192.1796875000,4194.7436523438,4164.4873046875,4044.8718261719,3716.5385742188,4158.2050781250,805.3845825195,4164.6152343750,3526.6667480469,,,
2.2421875000,0,3955.3845214844,3814.4870605469,3990.3845214844,3795.2563476563,806.1538085938,4188.8461914063,4193.4614257813,4168.8461914063,4067.0512695313,3716.6667480469,4160.0000000000,805.3845825195,4164.7436523438,3526.1538085938,,,
2.2500000000,0,3938.4614257813,3791.9230957031,3988.7180175781,3782.6923828125,805.1281738281,4186.4101562500,4193.7177734375,4175.2563476563,4094.8718261719,3719.7436523438,4161.0258789063,805.5128173828,4176.9228515625,3531.5385742188,,,
2.2578125000,0,3906.5385742188,3747.5642089844,3984.2307128906,3747.9487304688,805.5128173828,4181.6665039063,4189.2309570313,4179.3588867188,4134.2309570313,3721.9230957031,4170.6411132813,805.3845825195,4205.0000000000,3536.6667480469,,,
2.2656250000,0,3891.4101562500,3726.5385742188,4000.2563476563,3726.6667480469,806.5384521484,4181.2822265625,4190.5126953125,4175.8974609375,4162.0512695313,3721.9230957031,4177.8203125000,805.5128173828,4220.2563476563,3530.6411132813,,,
2.2734375000,0,3911.4101562500,3748.4614257813,4012.6923828125,3744.2307128906,806.2820434570,4184.7436523438,4198.3334960938,4165.8974609375,4150.2563476563,3724.6154785156,4168.0771484375,805.3845825195,4213.7177734375,3523.7180175781,,,
2.2812500000,0,3929.8718261719,3774.1025390625,4003.5898437500,3763.0769042969,806.4102783203,4186.6665039063,4200.5126953125,4156.1538085938,4111.9228515625,3729.1025390625,4150.6411132813,805.5128173828,4197.9487304688,3521.0256347656,,,
2.2890625000,0,3914.2307128906,3763.3332519531,3985.1281738281,3746.2819824219,807.6923217773,4178.3334960938,4195.1284179688,4155.7690429688,4102.8203125000,3732.8205566406,4146.0258789063,805.2564086914,4195.7690429688,3517.1794433594,,,
2.2968750000,0,3883.3332519531,3726.6667480469,3984.8718261719,3717.9487304688,807.4359130859,4166.2822265625,4191.6665039063,4159.8715820313,4125.8974609375,3732.4357910156,4153.2050781250,804.6153564453,4198.3334960938,3514.2307128906,,,
2.3046875000,0,3870.2563476563,3706.1538085938,4000.1281738281,3706.4101562500,807.1795043945,4167.5639648438,4192.8203125000,4166.1538085938,4142.1796875000,3732.5642089844,4157.0512695313,805.5128173828,4202.6923828125,3520.1281738281,,,
2.3125000000,0,3868.0769042969,3708.2050781250,4002.3076171875,3696.7949218750,807.4359130859,4171.9228515625,4192.6923828125,4165.5126953125,4150.3847656250,3735.5129394531,4157.0512695313,805.6409912109,4217.5639648438,3526.7949218750,,,
2.3203125000,0,3855.1281738281,3696.5385742188,3988.8461914063,3679.8718261719,807.5640869141,4162.5639648438,4188.7177734375,4152.3076171875,4144.6152343750,3737.4357910156,4151.4101562500,803.4615478516,4215.3847656250,3515.8974609375,,,
2.3281250000,0,3838.8461914063,3659.8718261719,3992.5642089844,3657.6923828125,807.1795043945,4157.5639648438,4187.0512695313,4192.5639648438,4204.7436523438,3737.8205566406,4178.9741210938,808.7179565430,4245.0000000000,3527.4357910156,,,
2.3359375000,0,3837.1794433594,3641.9230957031,4033.8461914063,3643.8461914063,807.4359130859,4158.8461914063,4193.4614257813,4277.1796875000,4446.2822265625,3735.8974609375,4259.7436523438,818.2051391602,4404.3588867188,3579.7436523438,,,
2.3437500000,0,3841.7949218750,3656.2819824219,4071.7949218750,3653.3332519531,807.8204956055,4158.4614257813,4200.0000000000,4273.2050781250,4670.6411132813,3735.5129394531,4298.8461914063,819.4871826172,4559.8715820313,3599.8718261719,,,
2.3515625000,0,3842.9487304688,3668.5898437500,4075.1281738281,3667.5642089844,806.1538085938,4159.4873046875,4198.3334960938,4228.9741210938,4722.9487304688,3744.2307128906,4287.9487304688,816.2820434570,4596.0258789063,3588.5898437500,,,
2.3593750000,0,3846.5385742188,3667.3076171875,4079.6154785156,3666.1538085938,805.5128173828,4158.8461914063,4196.4101562500,4258.7177734375,4791.1538085938,3732.1794433594,4312.1796875000,817.4359130859,4642.4360351563,3605.0000000000,,,
2.3671875000,0,3850.7692871094,3671.1538085938,4105.7690429688,3670.5129394531,806.4102783203,4155.1284179688,4199.4873046875,4291.1538085938,4938.7177734375,3741.2819824219,4346.0258789063,818.0769042969,4745.1284179688,3629.3588867188,,,
2.3750000000,0,3847.1794433594,3664.1025390625,4121.9228515625,3691.5385742188,805.7692260742,4154.2309570313,4198.0771484375,4247.9487304688,4976.0258789063,3806.7949218750,4319.2309570313,816.5384521484,4768.5898437500,3626.2819824219,,,
2.3828125000,0,3847.5642089844,3647.4357910156,4123.5898437500,3702.0512695313,805.2564086914,4153.4614257813,4194.8715820313,4227.1796875000,4920.7690429688,3801.7949218750,4286.4101562500,816.7948608398,4716.4101562500,3626.1538085938,,,
2.3906250000,0,3856.0256347656,3651.0256347656,4131.6665039063,3703.2050781250,806.2820434570,4150.0000000000,4200.3847656250,4259.6152343750,4943.0771484375,3832.0512695313,4302.3076171875,816.9230957031,4726.0258789063,3643.4614257813,,,
2.3984375000,0,3857.5642089844,3651.1538085938,4145.6411132813,3705.8974609375,805.8973999023,4150.5126953125,4203.4614257813,4271.7949218750,5021.4101562500,4009.4870605469,4325.8974609375,816.7948608398,4782.8203125000,3659.8718261719,,,
2.4062500000,0,3857.5642089844,3645.7692871094,4160.8974609375,3706.2819824219,805.3845825195,4147.5639648438,4199.1025390625,4231.9228515625,5018.7177734375,4048.3332519531,4306.6665039063,816.7948608398,4769.4873046875,3650.1281738281,,,
2.4140625000,0,3853.7180175781,3664.8718261719,4126.9228515625,3700.0000000000,806.4102783203,4139.8715820313,4196.7949218750,4157.3076171875,4819.1025390625,3851.0256347656,4228.4614257813,816.7948608398,4652.8203125000,3589.3588867188,,,
2.4218750000,0,3853.3332519531,3694.4870605469,4042.0512695313,3699.3588867188,806.0256347656,4140.3847656250,4197.9487304688,4124.8715820313,4536.2822265625,3732.8205566406,4155.5126953125,816.7948608398,4528.5898437500,3531.4101562500,,,
2.4296875000,0,3863.7180175781,3704.3588867188,3988.8461914063,3704.3588867188,805.2564086914,4140.3847656250,4196.6665039063,4156.9228515625,4386.6665039063,3760.3845214844,4140.3847656250,816.7948608398,4470.3847656250,3529.1025390625,,,
2.4375000000,0,3869.6154785156,3702.8205566406,3983.0769042969,3704.2307128906,805.7692260742,4137.6923828125,4197.5639648438,4175.7690429688,4344.7436523438,3752.4357910156,4141.6665039063,816.7948608398,4444.2309570313,3537.4357910156,,,
2.4453125000,0,3862.0512695313,3699.8718261719,3974.1025390625,3701.5385742188,805.8973999023,4137.4360351563,4197.5639648438,4157.8203125000,4264.6152343750,3741.5385742188,4121.1538085938,816.7948608398,4392.3076171875,3522.0512695313,,,
2.4531250000,0,3861.1538085938,3696.1538085938,3970.1281738281,3703.5898437500,805.5128173828,4137.9487304688,4198.5898437500,4187.4360351563,4226.6665039063,3757.4357910156,4123.0771484375,816.7948608398,4363.8461914063,3531.1538085938,,,
2.4609375000,0,3868.9743652344,3700.3845214844,3995.8974609375,3707.0512695313,805.5128173828,4136.2822265625,4202.6923828125,4250.2563476563,4346.7949218750,3762.0512695313,4170.1284179688,816.7948608398,4433.5898437500,3567.0512695313,,,
2.4687500000,0,3868.7180175781,3703.7180175781,4015.3845214844,3705.1281738281,805.5128173828,4134.4873046875,4200.3847656250,4246.6665039063,4477.6923828125,3766.1538085938,4194.2309570313,816.7948608398,4522.5639648438,3579.6154785156,,,
2.4765625000,0,3865.1281738281,3703.7180175781,4014.2307128906,3705.8974609375,805.6409912109,4135.1284179688,4196.1538085938,4211.0258789063,4488.9741210938,3766.7949218750,4173.8461914063,816.7948608398,4533.5898437500,3570.2563476563,,,
2.4843750000,0,3866.0256347656,3710.7692871094,4015.3845214844,3713.9743652344,805.6409912109,4134.3588867188,4200.3847656250,4214.3588867188,4475.0000000000,3771.1538085938,4166.6665039063,816.7948608398,4522.9487304688,3567.4357910156,,,
2.4921875000,0,3871.9230957031,3721.0256347656,4023.5898437500,3716.5385742188,805.6409912109,4130.8974609375,4203.2050781250,4237.6923828125,4523.2050781250,3770.0000000000,4190.3847656250,816.7948608398,4555.8974609375,3577.3076171875,,,
2.5000000000,0,3877.4357910156,3728.7180175781,4032.0512695313,3714.3588867188,806.5384521484,4126.6665039063,4200.7690429688,4244.6152343750,4603.3334960938,3768.3332519531,4209.6152343750,816.7948608398,4608.7177734375,3587.9487304688,,,
2.5078125000,0,3875.3845214844,3733.7180175781,4036.9230957031,3714.2307128906,807.6923217773,4124.6152343750,4203.0771484375,4236.1538085938,4647.1796875000,3771.4101562500,4208.0771484375,816.7948608398,4638.5898437500,3586.7949218750,,,
2.5156250000,0,3868.8461914063,3736.4101562500,4030.6411132813,3715.5129394531,807.3076782227,4124.1025390625,4201.5385742188,4223.2050781250,4640.7690429688,3772.1794433594,4197.8203125000,816.7948608398,4632.9487304688,3574.2307128906,,,
2.5234375000,0,3866.5385742188,3734.2307128906,4008.4614257813,3711.0256347656,803.2051391602,4121.0258789063,4195.8974609375,4205.7690429688,4591.6665039063,3770.6411132813,4177.3076171875,816.7948608398,4598.5898437500,3558.2050781250,,,
2.5312500000,0,3864.7436523438,3730.3845214844,3993.3332519531,3704.4870605469,772.1795043945,4117.8203125000,4197.4360351563,4209.6152343750,4551.1538085938,3773.8461914063,4168.8461914063,815.7692260742,4570.6411132813,3556.2819824219,,,
2.5390625000,0,3868.4614257813,3740.0000000000,4004.7436523438,3707.9487304688,701.4102783203,4120.6411132813,4204.3588867188,4222.6923828125,4565.2563476563,3781.9230957031,4178.5898437500,773.7179565430,4578.2050781250,3565.5129394531,,,
2.5468750000,0,3867.5642089844,3751.7949218750,3996.4101562500,3711.9230957031,709.8717651367,4120.8974609375,4199.8715820313,4152.3076171875,4454.8715820313,3782.5642089844,4119.8715820313,580.3845825195,4500.6411132813,3525.7692871094,,,
2.5546875000,0,3871.2819824219,3751.7949218750,3960.6411132813,3712.6923828125,742.6923217773,4117.0512695313,4197.0512695313,4073.5898437500,4140.1284179688,3781.1538085938,4016.9230957031,588.3333129883,4276.4101562500,3462.9487304688,,,
2.5625000000,0,3933.9743652344,3804.4870605469,3965.2563476563,3762.1794433594,677.1795043945,4129.6152343750,4217.0512695313,4118.2050781250,3935.0000000000,3785.6411132813,4005.8974609375,866.5384521484,4124.7436523438,3472.1794433594,,,
2.5703125000,0,4070.5129394531,3969.1025390625,4017.5642089844,3893.3332519531,1104.1025390625,4156.1538085938,4242.9487304688,4180.0000000000,3943.4614257813,3786.9230957031,4051.7949218750,431.4102478027,4133.3334960938,3511.2819824219,,,
2.5781250000,0,4213.7177734375,4167.3076171875,4050.0000000000,4043.0769042969,2523.7180175781,4171.7949218750,4254.7436523438,4160.6411132813,3931.4101562500,3785.0000000000,4050.8974609375,1012.6923217773,4138.0771484375,3506.7949218750,,,
2.5859375000,0,4292.3076171875,4279.1025390625,4041.7949218750,4126.2822265625,3995.6411132813,4171.9228515625,4251.6665039063,4148.3334960938,3860.8974609375,3786.1538085938,4041.9230957031,4468.5898437500,4098.0771484375,3498.8461914063,,,
2.5937500000,0,4307.5639648438,4304.7436523438,4026.7949218750,4140.3847656250,4485.6411132813,4161.4101562500,4241.1538085938,4170.1284179688,3867.0512695313,3786.1538085938,4065.0000000000,7427.5639648438,4102.4360351563,3509.8718261719,,,
2.6015625000,0,4300.2563476563,4300.1284179688,4018.4614257813,4131.1538085938,4413.8461914063,4147.9487304688,4228.8461914063,4163.7177734375,3889.7436523438,3786.9230957031,4072.0512695313,7424.6152343750,4116.7949218750,3510.5129394531,,,
2.6093750000,0,4298.7177734375,4295.5126953125,4013.9743652344,4129.7436523438,4445.1284179688,4146.7949218750,4226.4101562500,4162.4360351563,3890.5129394531,3786.1538085938,4070.8974609375,7001.0258789063,4121.4101562500,3510.2563476563,,,
2.6171875000,0,4296.2822265625,4293.2050781250,4009.2307128906,4129.1025390625,4493.5898437500,4148.0771484375,4226.9228515625,4164.4873046875,3895.0000000000,3786.4101562500,4074.4870605469,7480.1284179688,4129.3588867188,3512.5642089844,,,
2.6250000000,0,4289.2309570313,4287.0512695313,4006.5385742188,4122.9487304688,4447.6923828125,4141.6665039063,4223.8461914063,4161.0258789063,3895.6411132813,3795.0000000000,4078.5898437500,7422.5639648438,4128.5898437500,3510.3845214844,,,
2.6328125000,0,4288.2050781250,4283.5898437500,4006.0256347656,4121.6665039063,4426.1538085938,4138.2050781250,4223.9741210938,4161.6665039063,3896.2819824219,3801.2819824219,4081.5385742188,7230.6411132813,4126.0258789063,3509.7436523438,,,
2.6406250000,0,4292.6923828125,4284.2309570313,4006.5385742188,4123.8461914063,4478.4614257813,4140.8974609375,4222.9487304688,4162.0512695313,3897.0512695313,3799.2307128906,4079.6154785156,7267.0512695313,4126.0258789063,3511.9230957031,,,
2.6484375000,0,4294.1025390625,4280.6411132813,4005.0000000000,4124.1025390625,4538.3334960938,4140.8974609375,4221.9228515625,4162.8203125000,3902.8205566406,3800.0000000000,4084.4870605469,7114.8715820313,4129.3588867188,3515.3845214844,,,
2.6562500000,0,4292.8203125000,4276.5385742188,4004.6154785156,4120.1284179688,4504.2309570313,4137.8203125000,4221.5385742188,4162.1796875000,3905.8974609375,3803.2050781250,4094.1025390625,6967.0512695313,4132.3076171875,3514.2307128906,,,
2.6640625000,0,4286.0258789063,4276.5385742188,4006.2819824219,4119.2309570313,4397.3076171875,4137.8203125000,4217.0512695313,4158.5898437500,3904.4870605469,3801.1538085938,4085.2563476563,6827.8203125000,4128.3334960938,3508.8461914063,,,
2.6718750000,0,4279.2309570313,4275.6411132813,4003.3332519531,4132.9487304688,4330.1284179688,4138.5898437500,4212.8203125000,4158.0771484375,3907.3076171875,3800.7692871094,4065.8974609375,6687.3076171875,4129.1025390625,3509.4870605469,,,
2.6796875000,0,4278.2050781250,4273.0771484375,4001.1538085938,4143.8461914063,4323.9741210938,4139.3588867188,4214.4873046875,4161.0258789063,3909.3588867188,3803.0769042969,4060.0000000000,6581.6665039063,4132.8203125000,3513.3332519531,,,
2.6875000000,0,4283.5898437500,4273.7177734375,4024.2307128906,4143.7177734375,4321.4101562500,4140.7690429688,4217.3076171875,4158.8461914063,3909.3588867188,3802.1794433594,4062.6923828125,6521.5385742188,4112.0512695313,3513.7180175781,,,
2.6953125000,0,4284.6152343750,4275.1284179688,4052.3076171875,4145.1284179688,4316.1538085938,4139.1025390625,4214.8715820313,4156.0258789063,3910.3845214844,3802.5642089844,4060.6411132813,6455.0000000000,4075.7692871094,3511.9230957031,,,
2.7031250000,0,4282.4360351563,4272.5639648438,4057.4357910156,4147.6923828125,4315.2563476563,4137.5639648438,4216.1538085938,4161.1538085938,3912.1794433594,3802.1794433594,4060.0000000000,6382.3076171875,4062.9487304688,3512.0512695313,,,
2.7109375000,0,4282.4360351563,4265.5126953125,4056.2819824219,4147.5639648438,4305.2563476563,4139.8715820313,4218.0771484375,4162.4360351563,3912.0512695313,3803.2050781250,4064.4870605469,6306.2822265625,4067.9487304688,3512.1794433594,,,
2.7187500000,0,4280.8974609375,4263.0771484375,4061.5385742188,4146.0258789063,4294.7436523438,4142.3076171875,4214.1025390625,4159.1025390625,3914.1025390625,3811.2819824219,4066.9230957031,6230.0000000000,4068.7180175781,3510.3845214844,,,
2.7265625000,0,4278.4614257813,4264.7436523438,4061.0256347656,4144.7436523438,4288.5898437500,4140.5126953125,4211.5385742188,4159.4873046875,3918.7180175781,3817.0512695313,4066.1538085938,6065.6411132813,4067.3076171875,3512.6923828125,,,
2.7343750000,0,4278.0771484375,4263.9741210938,4061.7949218750,4148.7177734375,4280.1284179688,4138.9741210938,4213.0771484375,4159.6152343750,3919.1025390625,3815.8974609375,4068.2050781250,5885.8974609375,4068.5898437500,3516.2819824219,,,
2.7421875000,0,4274.1025390625,4263.0771484375,4065.0000000000,4153.5898437500,4274.1025390625,4140.5126953125,4213.2050781250,4157.5639648438,3920.0000000000,3817.4357910156,4068.3332519531,5835.6411132813,4066.9230957031,3512.3076171875,,,
2.7500000000,0,4271.6665039063,4261.1538085938,4066.4101562500,4151.0258789063,4269.8715820313,4139.6152343750,4210.1284179688,4158.5898437500,3924.7436523438,3820.1281738281,4066.2819824219,5774.2309570313,4065.1281738281,3509.2307128906,,,
2.7578125000,0,4273.8461914063,4257.3076171875,4068.7180175781,4151.4101562500,4256.0258789063,4140.7690429688,4211.2822265625,4160.3847656250,3926.9230957031,3817.8205566406,4068.5898437500,5607.3076171875,4066.7949218750,3512.4357910156,,,
2.7656250000,0,4273.0771484375,4254.6152343750,4070.2563476563,4151.1538085938,4233.8461914063,4145.3847656250,4212.9487304688,4159.3588867188,3928.8461914063,3816.6667480469,4073.9743652344,5445.7690429688,4068.4614257813,3512.3076171875,,,
2.7734375000,0,4268.5898437500,4255.2563476563,4069.8718261719,4142.0512695313,4215.6411132813,4148.9741210938,4214.4873046875,4161.4101562500,3932.0512695313,3818.9743652344,4073.5898437500,5297.5639648438,4067.6923828125,3510.1281738281,,,
2.7812500000,0,4266.7949218750,4255.2563476563,4069.6154785156,4139.6152343750,4206.2822265625,4146.5385742188,4214.2309570313,4163.5898437500,3930.5129394531,3819.8718261719,4071.1538085938,5175.5126953125,4067.1794433594,3512.8205566406,,,
2.7890625000,0,4267.8203125000,4254.1025390625,4070.5129394531,4144.2309570313,4203.3334960938,4142.4360351563,4211.6665039063,4162.3076171875,3932.3076171875,3819.3588867188,4074.1025390625,5136.0258789063,4070.7692871094,3513.9743652344,,,
2.7968750000,0,4267.8203125000,4254.6152343750,4071.9230957031,4144.2309570313,4210.8974609375,4145.3847656250,4211.4101562500,4160.7690429688,3938.7180175781,3818.9743652344,4076.2819824219,5227.3076171875,4072.5642089844,3510.5129394531,,,
2.8046875000,0,4273.0771484375,4262.5639648438,4075.6411132813,4150.7690429688,4268.7177734375,4153.8461914063,4212.8203125000,4160.6411132813,3936.7949218750,3821.5385742188,4078.0769042969,5725.8974609375,4071.5385742188,3510.7692871094,,,
2.8125000000,0,4281.2822265625,4275.3847656250,4077.6923828125,4161.7949218750,4374.6152343750,4152.8203125000,4213.3334960938,4159.3588867188,3933.3332519531,3827.6923828125,4082.8205566406,6559.8715820313,4073.4614257813,3514.2307128906,,,
2.8203125000,0,4286.6665039063,4281.4101562500,4078.7180175781,4162.1796875000,4442.4360351563,4146.4101562500,4215.6411132813,4159.4873046875,3935.7692871094,3832.4357910156,4088.8461914063,6988.0771484375,4076.4101562500,3512.1794433594,,,
2.8281250000,0,4286.7949218750,4281.0258789063,4078.5898437500,4161.0258789063,4438.7177734375,4147.8203125000,4215.1284179688,4161.9228515625,3936.9230957031,3831.7949218750,4090.5129394531,6899.8715820313,4075.2563476563,3508.8461914063,,,
2.8359375000,0,4285.5126953125,4277.6923828125,4079.2307128906,4167.0512695313,4426.4101562500,4147.9487304688,4211.2822265625,4161.6665039063,3938.0769042969,3830.6411132813,4088.7180175781,6826.6665039063,4072.6923828125,3511.0256347656,,,
2.8437500000,0,4282.9487304688,4276.1538085938,4078.8461914063,4169.3588867188,4442.5639648438,4145.1284179688,4210.7690429688,4160.1284179688,3939.3588867188,3833.5898437500,4088.3332519531,6862.5639648438,4071.4101562500,3511.7949218750,,,
2.8515625000,0,4283.4614257813,4279.8715820313,4077.1794433594,4166.9228515625,4455.5126953125,4149.2309570313,4214.3588867188,4162.0512695313,3939.8718261719,3835.5129394531,4090.3845214844,6798.3334960938,4073.9743652344,3510.3845214844,,,
2.8593750000,0,4286.5385742188,4280.3847656250,4078.4614257813,4166.5385742188,4453.2050781250,4151.0258789063,4214.2309570313,4161.1538085938,3941.1538085938,3834.2307128906,4093.5898437500,6739.2309570313,4076.9230957031,3510.3845214844,,,
2.8671875000,0,4286.1538085938,4279.1025390625,4079.7436523438,4167.5639648438,4454.7436523438,4150.2563476563,4212.6923828125,4160.2563476563,3942.5642089844,3834.1025390625,4094.8718261719,6729.6152343750,4076.7949218750,3509.6154785156,,,
2.8750000000,0,4282.5639648438,4278.3334960938,4077.5642089844,4165.6411132813,4460.8974609375,4152.8203125000,4213.4614257813,4163.0771484375,3941.9230957031,3835.3845214844,4091.6667480469,6700.1284179688,4075.0000000000,3507.9487304688,,,
2.8828125000,0,4281.2822265625,4279.1025390625,4078.5898437500,4167.0512695313,4460.0000000000,4154.6152343750,4213.8461914063,4162.4360351563,3941.9230957031,3835.2563476563,4089.3588867188,6683.9741210938,4076.1538085938,3507.8205566406,,,
2.8906250000,0,4280.7690429688,4279.6152343750,4080.3845214844,4168.2050781250,4456.5385742188,4151.2822265625,4213.9741210938,4160.2563476563,3943.2050781250,3835.1281738281,4095.6411132813,6673.2050781250,4077.9487304688,3507.5642089844,,,
2.8984375000,0,4279.3588867188,4279.8715820313,4078.8461914063,4166.5385742188,4456.6665039063,4152.0512695313,4214.1025390625,4163.2050781250,3945.1281738281,3839.1025390625,4103.9741210938,6659.3588867188,4079.1025390625,3505.3845214844,,,
2.9062500000,0,4282.3076171875,4280.5126953125,4079.6154785156,4167.3076171875,4463.9741210938,4153.9741210938,4214.3588867188,4165.6411132813,3949.3588867188,3843.8461914063,4103.0771484375,6695.5126953125,4081.1538085938,3503.7180175781,,,
2.9140625000,0,4283.3334960938,4281.4101562500,4081.9230957031,4165.5126953125,4484.1025390625,4154.7436523438,4212.3076171875,4160.5126953125,3952.0512695313,3845.3845214844,4101.0258789063,6825.8974609375,4080.0000000000,3501.2819824219,,,
2.9218750000,0,4279.2309570313,4280.8974609375,4080.5129394531,4160.1284179688,4473.9741210938,4153.8461914063,4210.8974609375,4159.7436523438,3951.1538085938,3847.3076171875,4106.2822265625,6704.1025390625,4081.0256347656,3502.1794433594,,,
2.9296875000,0,4279.3588867188,4281.6665039063,4081.9230957031,4162.1796875000,4465.2563476563,4153.0771484375,4210.6411132813,4163.5898437500,3951.6667480469,3848.8461914063,4111.1538085938,6636.4101562500,4082.3076171875,3503.3332519531,,,
2.9375000000,0,4284.3588867188,4285.2563476563,4083.9743652344,4167.0512695313,4502.1796875000,4155.3847656250,4211.1538085938,4162.5639648438,3953.5898437500,3847.3076171875,4108.8461914063,6912.5639648438,4079.1025390625,3501.6667480469,,,
2.9453125000,0,4268.9741210938,4269.4873046875,4074.2307128906,4148.4614257813,4374.3588867188,4151.7949218750,4208.4614257813,4161.1538085938,3954.3588867188,3847.9487304688,4105.6411132813,5845.7690429688,4080.5129394531,3498.5898437500,,,
2.9531250000,0,4240.3847656250,4233.9741210938,4067.8205566406,4119.1025390625,4042.0512695313,4148.7177734375,4205.6411132813,4162.8203125000,3960.3845214844,3851.7949218750,4105.7690429688,3314.4870605469,4086.6667480469,3498.3332519531,,,
2.9609375000,0,4223.3334960938,4212.1796875000,4072.4357910156,4107.5639648438,3793.5898437500,4150.2563476563,4207.4360351563,4166.4101562500,3972.9487304688,3851.6667480469,4104.3588867188,1639.7435302734,4086.7949218750,3499.4870605469,,,
2.9687500000,0,4218.9741210938,4211.2822265625,4079.3588867188,4105.5126953125,3723.2050781250,4148.4614257813,4209.6152343750,4170.8974609375,3981.7949218750,3851.6667480469,4103.7177734375,1350.6409912109,4088.2050781250,3499.3588867188,,,
2.9765625000,0,4215.3847656250,4206.2822265625,4080.0000000000,4100.2563476563,3683.5898437500,4147.3076171875,4209.4873046875,4171.2822265625,3982.4357910156,3852.1794433594,4103.7177734375,1074.7435302734,4093.2050781250,3498.2050781250,,,
2.9843750000,0,4210.5126953125,4195.1284179688,4075.8974609375,4092.8205566406,3602.4357910156,4152.9487304688,4207.5639648438,4170.6411132813,3983.0769042969,3850.3845214844,4104.2309570313,686.4102783203,4094.6154785156,3497.9487304688,,,
2.9921875000,0,4201.7949218750,4187.3076171875,4073.5898437500,4084.1025390625,3498.4614257813,4153.5898437500,4204.1025390625,4168.7177734375,3988.2050781250,3853.7180175781,4102.6923828125,715.3845825195,4096.2822265625,3498.9743652344,,,
3.0000000000,0,4191.0258789063,4174.1025390625,4077.4357910156,4072.4357910156,3368.5898437500,4148.7177734375,4203.2050781250,4165.5126953125,3992.3076171875,3860.1281738281,4096.6665039063,744.4871826172,4095.3845214844,3498.2050781250,,,
3.0078125000,0,4181.4101562500,4153.8461914063,4079.6154785156,4057.5642089844,3209.4870605469,4149.2309570313,4201.4101562500,4162.1796875000,3991.0256347656,3860.3845214844,4092.4357910156,796.9230957031,4087.8205566406,3494.3588867188,,,
3.0156250000,0,4172.4360351563,4137.8203125000,4077.4357910156,4043.8461914063,3040.1281738281,4146.4101562500,4201.1538085938,4161.6665039063,3994.2307128906,3858.4614257813,4093.0769042969,785.8973999023,4087.4357910156,3493.0769042969,,,
3.0234375000,0,4161.9228515625,4128.2050781250,4079.3588867188,4033.7180175781,2924.7436523438,4141.7949218750,4201.2822265625,4160.8974609375,4000.5129394531,3861.7949218750,4092.9487304688,789.3589477539,4093.4614257813,3493.7180175781,,,
3.0312500000,0,4146.7949218750,4111.9228515625,4078.4614257813,4021.9230957031,2795.6411132813,4141.1538085938,4199.1025390625,4160.0000000000,4001.7949218750,3864.3588867188,4089.6154785156,814.3589477539,4094.1025390625,3494.6154785156,,,
3.0390625000,0,4130.5126953125,4089.1025390625,4070.7692871094,4005.6411132813,2566.5385742188,4139.2309570313,4195.8974609375,4162.3076171875,4007.4357910156,3863.5898437500,4088.9743652344,797.1795043945,4091.7949218750,3495.1281738281,,,
3.0468750000,0,4119.1025390625,4073.7180175781,4073.0769042969,3993.2050781250,2370.2563476563,4136.5385742188,4199.2309570313,4162.8203125000,4018.3332519531,3863.9743652344,4089.6154785156,809.3589477539,4094.1025390625,3495.7692871094,,,
3.0546875000,0,4111.2822265625,4066.0256347656,4078.3332519531,3986.6667480469,2264.1025390625,4140.1284179688,4201.9228515625,4163.7177734375,4024.2307128906,3865.6411132813,4090.1281738281,802.6923217773,4097.0512695313,3494.6154785156,,,
3.0625000000,0,4104.1025390625,4057.1794433594,4073.0769042969,3976.9230957031,2168.3332519531,4143.2050781250,4198.0771484375,4163.7177734375,4024.7436523438,3867.4357910156,4089.3588867188,777.1795043945,4095.0000000000,3493.7180175781,,,
3.0703125000,0,4103.4614257813,4052.8205566406,4071.7949218750,3971.1538085938,2127.5642089844,4142.9487304688,4199.4873046875,4163.7177734375,4023.5898437500,3865.7692871094,4086.1538085938,737.6923217773,4095.6411132813,3494.2307128906,,,
3.0781250000,0,4110.5126953125,4059.8718261719,4077.9487304688,3975.1281738281,2182.8205566406,4147.1796875000,4203.8461914063,4162.9487304688,4022.3076171875,3866.9230957031,4085.1281738281,808.4615478516,4100.3847656250,3494.6154785156,,,
3.0859375000,0,4129.1025390625,4083.3332519531,4088.5898437500,3993.3332519531,2365.0000000000,4153.7177734375,4208.4614257813,4160.6411132813,4018.8461914063,3874.1025390625,4087.4357910156,666.2820434570,4096.6665039063,3496.0256347656,,,
3.0937500000,0,4170.2563476563,4135.8974609375,4104.8715820313,4034.4870605469,2842.8205566406,4159.1025390625,4216.1538085938,4160.5126953125,4004.6154785156,3877.0512695313,4086.1538085938,553.0769042969,4082.8205566406,3496.9230957031,,,
3.1015625000,0,4215.0000000000,4196.9228515625,4112.4360351563,4079.3588867188,3463.5898437500,4161.0258789063,4221.2822265625,4163.2050781250,3988.3332519531,3874.7436523438,4085.1281738281,1131.0256347656,4074.7436523438,3498.0769042969,,,
3.1093750000,0,4226.2822265625,4218.7177734375,4102.8203125000,4097.4360351563,3761.4101562500,4156.5385742188,4218.8461914063,4166.1538085938,3984.3588867188,3875.1281738281,4088.5898437500,1832.3077392578,4074.2307128906,3497.0512695313,,,
3.1171875000,0,4225.7690429688,4217.5639648438,4103.4614257813,4097.6923828125,3786.5385742188,4153.7177734375,4216.0258789063,4165.3847656250,3986.4101562500,3876.7949218750,4089.4870605469,2287.3076171875,4071.9230957031,3495.1281738281,,,
3.1250000000,0,4247.6923828125,4239.8715820313,4115.1284179688,4113.4614257813,3983.0769042969,4158.8461914063,4218.2050781250,4163.0771484375,3981.1538085938,3876.9230957031,4091.7949218750,3629.1025390625,4070.0000000000,3497.5642089844,,,
3.1328125000,0,4274.3588867188,4276.0258789063,4117.1796875000,4138.0771484375,4330.8974609375,4163.9741210938,4222.6923828125,4168.3334960938,3972.8205566406,3878.2050781250,4102.0512695313,5945.0000000000,4070.7692871094,3498.8461914063,,,
3.1406250000,0,4281.1538085938,4293.0771484375,4115.0000000000,4149.8715820313,4502.8203125000,4162.1796875000,4221.1538085938,4172.5639648438,3969.6154785156,3879.3588867188,4108.8461914063,7262.8203125000,4068.0769042969,3499.1025390625,,,
3.1484375000,0,4281.7949218750,4294.1025390625,4117.1796875000,4153.0771484375,4507.5639648438,4157.8203125000,4213.8461914063,4170.5126953125,3971.0256347656,3879.3588867188,4106.4101562500,7253.9746093750,4066.1538085938,3502.9487304688,,,
3.1562500000,0,4281.5385742188,4293.2050781250,4115.3847656250,4152.6923828125,4511.7949218750,4157.0512695313,4211.5385742188,4169.6152343750,3974.3588867188,3879.6154785156,4108.7177734375,7112.5639648438,4069.8718261719,3507.1794433594,,,
3.1640625000,0,4278.5898437500,4292.1796875000,4113.8461914063,4151.9228515625,4541.7949218750,4158.0771484375,4216.5385742188,4171.7949218750,3976.0256347656,3880.2563476563,4116.9228515625,7170.1284179688,4073.8461914063,3505.3845214844,,,
3.1718750000,0,4281.0258789063,4291.0258789063,4115.2563476563,4156.7949218750,4558.2050781250,4158.4614257813,4217.4360351563,4172.4360351563,3977.8205566406,3881.6667480469,4115.8974609375,7190.8974609375,4076.6667480469,3501.5385742188,,,
3.1796875000,0,4282.6923828125,4292.9487304688,4112.5639648438,4161.4101562500,4566.9228515625,4159.1025390625,4216.0258789063,4175.1284179688,3981.7949218750,3884.1025390625,4109.6152343750,7210.3847656250,4082.3076171875,3499.8718261719,,,
3.1875000000,0,4279.8715820313,4298.4614257813,4109.4873046875,4164.1025390625,4576.5385742188,4160.0000000000,4217.8203125000,4173.2050781250,3985.7692871094,3883.5898437500,4107.6923828125,7228.5898437500,4081.9230957031,3496.0256347656,,,
3.1953125000,0,4280.0000000000,4301.4101562500,4113.4614257813,4164.8715820313,4563.4614257813,4157.1796875000,4216.7949218750,4166.5385742188,3985.6411132813,3882.1794433594,4108.9741210938,7157.6923828125,4075.7692871094,3492.8205566406,,,
3.2031250000,0,4283.3334960938,4298.2050781250,4116.2822265625,4165.7690429688,4546.5385742188,4155.1284179688,4214.6152343750,4169.4873046875,3985.0000000000,3886.2819824219,4113.0771484375,7053.2050781250,4079.6154785156,3492.9487304688,,,
3.2109375000,0,4278.8461914063,4294.4873046875,4110.5126953125,4160.8974609375,4542.4360351563,4159.1025390625,4212.8203125000,4172.1796875000,3986.7949218750,3892.0512695313,4112.9487304688,6988.5898437500,4084.2307128906,3493.9743652344,,,
3.2187500000,0,4276.0258789063,4295.0000000000,4109.1025390625,4155.8974609375,4540.8974609375,4159.1025390625,4210.6411132813,4165.8974609375,3985.8974609375,3893.3332519531,4107.8203125000,6941.6665039063,4080.7692871094,3491.2819824219,,,
3.2265625000,0,4277.0512695313,4296.4101562500,4113.0771484375,4159.4873046875,4538.5898437500,4153.2050781250,4210.0000000000,4163.0771484375,3984.7436523438,3892.1794433594,4112.1796875000,6927.6923828125,4080.8974609375,3489.1025390625,,,
3.2343750000,0,4274.6152343750,4295.5126953125,4114.6152343750,4162.1796875000,4531.7949218750,4155.7690429688,4213.2050781250,4169.4873046875,3988.3332519531,3891.6667480469,4122.5639648438,6892.8203125000,4083.8461914063,3493.3332519531,,,
3.2421875000,0,4274.7436523438,4294.8715820313,4114.4873046875,4157.6923828125,4529.6152343750,4160.1284179688,4212.8203125000,4170.2563476563,3990.2563476563,3892.8205566406,4122.0512695313,6875.8974609375,4084.2307128906,3494.7436523438,,,
3.2500000000,0,4276.4101562500,4297.3076171875,4116.5385742188,4153.8461914063,4531.6665039063,4158.4614257813,4210.6411132813,4163.0771484375,3990.5129394531,3896.1538085938,4119.1025390625,6865.8974609375,4085.2563476563,3491.9230957031,,,
3.2578125000,0,4271.6665039063,4296.6665039063,4116.0258789063,4157.9487304688,4528.9741210938,4158.4614257813,4210.7690429688,4162.3076171875,3991.4101562500,3897.0512695313,4122.0512695313,6842.3076171875,4087.6923828125,3491.6667480469,,,
3.2656250000,0,4271.9228515625,4291.2822265625,4115.2563476563,4160.1284179688,4525.1284179688,4161.0258789063,4209.7436523438,4169.7436523438,3992.8205566406,3894.8718261719,4124.3588867188,6827.0512695313,4087.1794433594,3495.6411132813,,,
3.2734375000,0,4273.8461914063,4285.2563476563,4114.3588867188,4155.5126953125,4522.9487304688,4159.6152343750,4209.4873046875,4170.7690429688,3994.1025390625,3895.1281738281,4123.9741210938,6811.6665039063,4084.8718261719,3495.2563476563,,,
3.2812500000,0,4273.0771484375,4282.4360351563,4114.8715820313,4153.5898437500,4515.5126953125,4158.9741210938,4210.1284179688,4165.5126953125,3994.1025390625,3896.9230957031,4124.4873046875,6798.0771484375,4080.2563476563,3494.4870605469,,,
3.2890625000,0,4271.7949218750,4280.3847656250,4120.1284179688,4152.3076171875,4506.4101562500,4162.5639648438,4208.8461914063,4164.8715820313,3993.0769042969,3896.1538085938,4126.5385742188,6787.9487304688,4073.9743652344,3498.7180175781,,,
3.2968750000,0,4271.9228515625,4276.6665039063,4127.5639648438,4153.3334960938,4496.5385742188,4159.8715820313,4208.4614257813,4164.6152343750,3991.5385742188,3896.5385742188,4128.4614257813,6776.6665039063,4073.4614257813,3499.4870605469,,,
3.3046875000,0,4269.8715820313,4276.5385742188,4133.4614257813,4151.1538085938,4481.9228515625,4159.2309570313,4210.2563476563,4164.1025390625,3992.1794433594,3902.3076171875,4131.1538085938,6768.0771484375,4074.8718261719,3498.3332519531,,,
3.3125000000,0,4270.2563476563,4275.8974609375,4140.1284179688,4149.4873046875,4463.4614257813,4164.1025390625,4210.1284179688,4166.1538085938,3991.6667480469,3909.6154785156,4136.9228515625,6776.2822265625,4071.0256347656,3501.2819824219,,,
3.3203125000,0,4270.7690429688,4273.8461914063,4148.9741210938,4152.3076171875,4438.4614257813,4162.5639648438,4210.0000000000,4165.1284179688,3991.6667480469,3912.1794433594,4139.2309570313,6785.6411132813,4065.0000000000,3502.3076171875,,,
3.3281250000,0,4270.2563476563,4273.4614257813,4151.9228515625,4148.5898437500,4410.7690429688,4163.5898437500,4209.6152343750,4165.3847656250,3994.1025390625,3911.1538085938,4135.2563476563,6791.4101562500,4063.5898437500,3498.2050781250,,,
3.3359375000,0,4269.8715820313,4273.4614257813,4149.6152343750,4144.8715820313,4400.1284179688,4167.9487304688,4207.9487304688,4168.4614257813,3995.1281738281,3911.2819824219,4141.1538085938,6782.9487304688,4067.3076171875,3498.2050781250,,,
3.3437500000,0,4269.4873046875,4269.2309570313,4149.4873046875,4144.4873046875,4409.2309570313,4168.9741210938,4207.9487304688,4169.4873046875,3996.4101562500,3911.6667480469,4148.2050781250,6761.7949218750,4069.2307128906,3499.7436523438,,,
3.3515625000,0,4272.4360351563,4270.6411132813,4150.3847656250,4145.3847656250,4422.5639648438,4165.7690429688,4210.5126953125,4168.7177734375,3998.5898437500,3911.1538085938,4143.3334960938,6730.1284179688,4066.6667480469,3498.4614257813,,,
3.3593750000,0,4273.8461914063,4274.4873046875,4149.6152343750,4142.9487304688,4438.2050781250,4167.1796875000,4210.5126953125,4169.2309570313,4001.5385742188,3911.0256347656,4145.7690429688,6702.5639648438,4063.9743652344,3498.2050781250,,,
3.3671875000,0,4271.0258789063,4273.3334960938,4148.5898437500,4142.3076171875,4455.6411132813,4168.0771484375,4209.4873046875,4168.7177734375,4003.2050781250,3911.0256347656,4155.2563476563,6668.2050781250,4066.9230957031,3498.2050781250,,,
3.3750000000,0,4269.4873046875,4270.7690429688,4141.1538085938,4144.6152343750,4466.4101562500,4166.7949218750,4208.5898437500,4168.7177734375,4002.9487304688,3911.0256347656,4155.0000000000,6643.3334960938,4070.3845214844,3495.2563476563,,,
3.3828125000,0,4270.8974609375,4269.3588867188,4129.7436523438,4144.4873046875,4467.1796875000,4168.0771484375,4209.1025390625,4169.2309570313,4004.7436523438,3910.8974609375,4151.4101562500,6623.5898437500,4070.7692871094,3496.2819824219,,,
3.3906250000,0,4271.0258789063,4271.4101562500,4127.3076171875,4146.2822265625,4468.7177734375,4167.9487304688,4210.6411132813,4167.9487304688,4007.1794433594,3910.6411132813,4153.8461914063,6609.4873046875,4071.4101562500,3501.7949218750,,,
3.3984375000,0,4271.9228515625,4276.4101562500,4130.2563476563,4150.1284179688,4471.0258789063,4168.9741210938,4211.5385742188,4170.3847656250,4007.9487304688,3910.6411132813,4155.1284179688,6592.0512695313,4074.3588867188,3501.1538085938,,,
3.4062500000,0,4271.6665039063,4277.5639648438,4126.2822265625,4152.5639648438,4467.4360351563,4168.8461914063,4210.3847656250,4171.0258789063,4007.8205566406,3911.1538085938,4153.8461914063,6588.2050781250,4076.4101562500,3494.1025390625,,,
3.4140625000,0,4269.2309570313,4275.5126953125,4125.5126953125,4151.9228515625,4463.7177734375,4167.3076171875,4208.9741210938,4168.0771484375,4009.7436523438,3910.2563476563,4155.2563476563,6578.2050781250,4076.9230957031,3494.7436523438,,,
3.4218750000,0,4268.3334960938,4277.0512695313,4129.7436523438,4151.1538085938,4461.6665039063,4166.6665039063,4209.8715820313,4171.1538085938,4012.5642089844,3912.1794433594,4155.0000000000,6569.2309570313,4074.6154785156,3499.6154785156,,,
3.4296875000,0,4269.6152343750,4280.1284179688,4130.3847656250,4153.4614257813,4459.4873046875,4168.5898437500,4211.0258789063,4175.1284179688,4015.0000000000,3919.7436523438,4155.0000000000,6559.6152343750,4073.2050781250,3496.9230957031,,,
3.4375000000,0,4268.8461914063,4278.5898437500,4128.3334960938,4151.7949218750,4461.1538085938,4169.3588867188,4209.6152343750,4171.6665039063,4016.6667480469,3925.3845214844,4155.5126953125,6545.7690429688,4073.3332519531,3491.4101562500,,,
3.4453125000,0,4268.8461914063,4280.2563476563,4130.8974609375,4152.0512695313,4463.7177734375,4167.6923828125,4207.9487304688,4167.5639648438,4015.7692871094,3924.4870605469,4154.2309570313,6529.2309570313,4071.5385742188,3489.8718261719,,,
3.4531250000,0,4269.6152343750,4280.8974609375,4135.1284179688,4150.3847656250,4463.0771484375,4167.6923828125,4208.9741210938,4170.0000000000,4015.8974609375,3923.4614257813,4158.8461914063,6517.4360351563,4068.4614257813,3490.6411132813,,,
3.4609375000,0,4267.4360351563,4280.1284179688,4136.7949218750,4151.9228515625,4458.3334960938,4168.8461914063,4210.1284179688,4172.3076171875,4018.9743652344,3924.3588867188,4163.0771484375,6513.9741210938,4062.1794433594,3490.0000000000,,,
3.4687500000,0,4268.0771484375,4280.5126953125,4140.6411132813,4155.1284179688,4452.1796875000,4168.8461914063,4210.7690429688,4170.7690429688,4020.6411132813,3923.7180175781,4160.7690429688,6510.2563476563,4058.9743652344,3487.5642089844,,,
3.4765625000,0,4266.7949218750,4278.4614257813,4139.8715820313,4149.8715820313,4442.8203125000,4168.2050781250,4211.5385742188,4170.0000000000,4020.7692871094,3922.9487304688,4162.0512695313,6506.0258789063,4068.4614257813,3487.9487304688,,,
3.4843750000,0,4263.2050781250,4277.3076171875,4143.4614257813,4148.2050781250,4428.4614257813,4169.3588867188,4211.0258789063,4170.6411132813,4019.8718261719,3924.2307128906,4170.5126953125,6503.4614257813,4064.8718261719,3491.9230957031,,,
3.4921875000,0,4261.5385742188,4278.8461914063,4147.5639648438,4150.6411132813,4410.1284179688,4170.1284179688,4209.6152343750,4170.8974609375,4019.8718261719,3926.0256347656,4172.3076171875,6520.2563476563,4052.0512695313,3493.3332519531,,,
3.5000000000,0,4262.9487304688,4274.1025390625,4120.5126953125,4146.6665039063,4393.5898437500,4169.6152343750,4211.5385742188,4169.7436523438,4022.4357910156,3926.7949218750,4170.2563476563,6523.8461914063,4084.3588867188,3491.6667480469,,,
3.5078125000,0,4262.3076171875,4264.7436523438,4077.5642089844,4139.6152343750,4377.9487304688,4169.8715820313,4212.0512695313,4168.8461914063,4021.7949218750,3926.5385742188,4171.2822265625,6517.1796875000,4140.7690429688,3490.1281738281,,,
3.5156250000,0,4258.5898437500,4263.8461914063,4069.4870605469,4138.8461914063,4358.4614257813,4170.7690429688,4210.1284179688,4169.3588867188,4020.3845214844,3926.5385742188,4173.9741210938,6516.6665039063,4154.4873046875,3494.8718261719,,,
3.5234375000,0,4253.3334960938,4260.1284179688,4082.5642089844,4139.3588867188,4334.3588867188,4169.3588867188,4209.4873046875,4168.8461914063,4022.3076171875,3926.6667480469,4176.0258789063,6534.4873046875,4135.5126953125,3501.4101562500,,,
3.5312500000,0,4254.1025390625,4251.7949218750,4086.7949218750,4137.5639648438,4315.3847656250,4168.3334960938,4211.9228515625,4168.7177734375,4023.4614257813,3926.0256347656,4175.5126953125,6535.5126953125,4130.7690429688,3502.3076171875,,,
3.5390625000,0,4257.8203125000,4252.4360351563,4090.8974609375,4138.2050781250,4335.3847656250,4170.3847656250,4212.0512695313,4169.1025390625,4021.4101562500,3925.8974609375,4171.2822265625,6500.1284179688,4135.3847656250,3500.2563476563,,,
3.5468750000,0,4257.8203125000,4253.0771484375,4097.9487304688,4138.2050781250,4377.1796875000,4171.2822265625,4209.7436523438,4170.1284179688,4021.2819824219,3927.0512695313,4174.4873046875,6438.2050781250,4132.5639648438,3500.1281738281,,,
3.5546875000,0,4257.5639648438,4247.6923828125,4102.6923828125,4136.7949218750,4373.2050781250,4170.6411132813,4209.1025390625,4169.7436523438,4021.6667480469,3925.5129394531,4180.1284179688,6429.4873046875,4128.5898437500,3499.4870605469,,,
3.5625000000,0,4258.8461914063,4248.5898437500,4113.2050781250,4136.4101562500,4324.2309570313,4170.2563476563,4209.3588867188,4168.4614257813,4019.3588867188,3925.7692871094,4177.0512695313,6472.5639648438,4128.0771484375,3497.3076171875,,,
3.5703125000,0,4255.5126953125,4250.2563476563,4121.9228515625,4136.4101562500,4290.0000000000,4172.1796875000,4208.4614257813,4169.7436523438,4020.0000000000,3934.2307128906,4175.3847656250,6498.8461914063,4124.8715820313,3494.2307128906,,,
3.5781250000,0,4254.8715820313,4248.0771484375,4128.2050781250,4136.4101562500,4276.4101562500,4173.3334960938,4209.8715820313,4171.7949218750,4022.4357910156,3941.6667480469,4182.3076171875,6491.7949218750,4114.7436523438,3493.7180175781,,,
3.5859375000,0,4255.8974609375,4248.4614257813,4135.7690429688,4135.7690429688,4266.0258789063,4172.9487304688,4212.1796875000,4170.8974609375,4023.2050781250,3940.5129394531,4186.1538085938,6489.2309570313,4109.2309570313,3495.3845214844,,,
3.5937500000,0,4255.8974609375,4251.2822265625,4142.4360351563,4137.3076171875,4255.3847656250,4172.8203125000,4210.5126953125,4168.8461914063,4022.0512695313,3938.8461914063,4184.6152343750,6491.1538085938,4111.1538085938,3492.0512695313,,,
3.6015625000,0,4255.5126953125,4249.8715820313,4146.9228515625,4136.7949218750,4243.7177734375,4172.8203125000,4207.3076171875,4168.3334960938,4021.6667480469,3940.8974609375,4183.4614257813,6487.4360351563,4108.8461914063,3485.1281738281,,,
3.6093750000,0,4256.0258789063,4249.4873046875,4148.7177734375,4135.0000000000,4237.0512695313,4169.7436523438,4207.9487304688,4168.0771484375,4024.6154785156,3940.7692871094,4185.8974609375,6480.8974609375,4106.2822265625,3487.8205566406,,,
3.6171875000,0,4255.3847656250,4249.7436523438,4147.8203125000,4135.7690429688,4237.8203125000,4172.5639648438,4209.6152343750,4171.2822265625,4026.6667480469,3939.6154785156,4186.6665039063,6465.7690429688,4107.4360351563,3492.9487304688,,,
3.6250000000,0,4254.6152343750,4248.8461914063,4147.3076171875,4137.6923828125,4237.0512695313,4176.7949218750,4208.8461914063,4172.6923828125,4027.4357910156,3941.0256347656,4184.6152343750,6453.8461914063,4109.2309570313,3489.8718261719,,,
3.6328125000,0,4255.6411132813,4248.9741210938,4146.6665039063,4137.3076171875,4238.4614257813,4175.8974609375,4208.9741210938,4173.7177734375,4029.7436523438,3941.7949218750,4187.1796875000,6442.6923828125,4109.3588867188,3487.9487304688,,,
3.6406250000,0,4256.7949218750,4250.1284179688,4143.0771484375,4134.6152343750,4242.5639648438,4173.3334960938,4209.2309570313,4174.1025390625,4031.7949218750,3942.5642089844,4192.3076171875,6434.7436523438,4108.5898437500,3489.4870605469,,,
3.6484375000,0,4259.1025390625,4251.0258789063,4132.5639648438,4134.2309570313,4241.2822265625,4173.8461914063,4207.5639648438,4174.3588867188,4032.1794433594,3944.1025390625,4191.9228515625,6416.1538085938,4110.3847656250,3491.7949218750,,,
3.6562500000,0,4258.5898437500,4250.1284179688,4119.7436523438,4136.6665039063,4249.7436523438,4174.2309570313,4206.7949218750,4174.1025390625,4032.8205566406,3945.0000000000,4191.9228515625,6395.7690429688,4117.0512695313,3492.5642089844,,,
3.6640625000,0,4259.3588867188,4251.1538085938,4117.1796875000,4137.0512695313,4272.6923828125,4175.5126953125,4208.3334960938,4176.2822265625,4035.1281738281,3943.9743652344,4197.4360351563,6365.1284179688,4122.6923828125,3491.7949218750,,,
3.6718750000,0,4257.3076171875,4250.5126953125,4117.4360351563,4135.5126953125,4280.7690429688,4176.0258789063,4209.3588867188,4175.1284179688,4035.8974609375,3943.8461914063,4197.4360351563,6345.2563476563,4122.1796875000,3490.1281738281,,,
3.6796875000,0,4255.7690429688,4249.6152343750,4111.0258789063,4135.8974609375,4276.9228515625,4175.6411132813,4210.1284179688,4172.5639648438,4036.2819824219,3943.7180175781,4194.6152343750,6329.1025390625,4122.8203125000,3492.5642089844,,,
3.6875000000,0,4260.3847656250,4253.8461914063,4106.4101562500,4136.0258789063,4290.0000000000,4177.0512695313,4209.8715820313,4175.6411132813,4035.1281738281,3943.0769042969,4198.7177734375,6311.9228515625,4124.3588867188,3495.8974609375,,,
3.6953125000,0,4263.8461914063,4260.5126953125,4109.3588867188,4136.9228515625,4309.4873046875,4176.5385742188,4209.4873046875,4177.3076171875,4035.8974609375,3943.9743652344,4203.7177734375,6283.9741210938,4124.6152343750,3490.8974609375,,,
3.7031250000,0,4259.2309570313,4262.8203125000,4108.0771484375,4137.5639648438,4311.0258789063,4175.3847656250,4210.0000000000,4176.2822265625,4037.1794433594,3944.6154785156,4200.0000000000,6265.8974609375,4124.3588867188,3486.4101562500,,,
3.7109375000,0,4259.8715820313,4258.9741210938,4105.7690429688,4132.6923828125,4310.6411132813,4175.3847656250,4210.1284179688,4174.7436523438,4035.2563476563,3946.6667480469,4198.0771484375,6250.6411132813,4124.8715820313,3490.7692871094,,,
3.7187500000,0,4266.4101562500,4257.6923828125,4108.3334960938,4130.2563476563,4319.7436523438,4175.0000000000,4210.2563476563,4173.8461914063,4037.5642089844,3949.6154785156,4207.1796875000,6244.1025390625,4127.3076171875,3490.7692871094,,,
3.7265625000,0,4262.6923828125,4256.0258789063,4108.9741210938,4130.1284179688,4320.2563476563,4174.6152343750,4209.8715820313,4174.1025390625,4042.5642089844,3952.6923828125,4212.0512695313,6242.1796875000,4129.1025390625,3483.8461914063,,,
3.7343750000,0,4258.3334960938,4253.8461914063,4106.5385742188,4129.2309570313,4314.4873046875,4176.2822265625,4208.8461914063,4172.6923828125,4042.4357910156,3955.8974609375,4209.4873046875,6231.7949218750,4127.9487304688,3485.3845214844,,,
3.7421875000,0,4261.7949218750,4252.3076171875,4108.7177734375,4127.9487304688,4319.4873046875,4177.5639648438,4210.5126953125,4170.7690429688,4040.0000000000,3957.1794433594,4212.8203125000,6213.9741210938,4126.1538085938,3491.6667480469,,,
3.7500000000,0,4260.2563476563,4255.1284179688,4110.2563476563,4128.7177734375,4329.2309570313,4176.4101562500,4212.0512695313,4171.5385742188,4042.8205566406,3956.6667480469,4213.8461914063,6193.2050781250,4128.2050781250,3486.1538085938,,,
3.7578125000,0,4255.1284179688,4255.5126953125,4108.9741210938,4127.9487304688,4334.6152343750,4175.0000000000,4208.5898437500,4173.7177734375,4044.7436523438,3955.7692871094,4212.4360351563,6177.6923828125,4126.5385742188,3479.3588867188,,,
3.7656250000,0,4259.2309570313,4251.1538085938,4109.6152343750,4127.4360351563,4340.1284179688,4177.1796875000,4206.2822265625,4173.0771484375,4043.8461914063,3955.1281738281,4215.3847656250,6160.6411132813,4126.2822265625,3485.0000000000,,,
3.7734375000,0,4264.2309570313,4252.1796875000,4110.7690429688,4129.3588867188,4344.7436523438,4178.8461914063,4208.4614257813,4173.0771484375,4042.9487304688,3955.6411132813,4217.3076171875,6148.4614257813,4128.8461914063,3487.9487304688,,,
3.7812500000,0,4263.5898437500,4253.2050781250,4112.0512695313,4124.3588867188,4343.3334960938,4175.0000000000,4211.4101562500,4173.4614257813,4042.9487304688,3957.0512695313,4217.3076171875,6137.4360351563,4130.1284179688,3485.0000000000,,,
3.7890625000,0,4262.1796875000,4250.6411132813,4112.8203125000,4118.8461914063,4340.2563476563,4178.0771484375,4210.6411132813,4174.1025390625,4042.9487304688,3956.4101562500,4216.7949218750,6135.5126953125,4130.1284179688,3484.6154785156,,,
3.7968750000,0,4262.9487304688,4249.6152343750,4113.0771484375,4119.7436523438,4340.1284179688,4186.4101562500,4209.4873046875,4172.4360351563,4042.9487304688,3958.3332519531,4218.3334960938,6117.9487304688,4129.1025390625,3486.7949218750,,,
3.8046875000,0,4261.5385742188,4248.4614257813,4114.1025390625,4120.3847656250,4357.3076171875,4184.2309570313,4208.7177734375,4169.6152343750,4043.3332519531,3962.3076171875,4224.4873046875,6089.1025390625,4127.0512695313,3487.5642089844,,,
3.8125000000,0,4262.4360351563,4246.6665039063,4128.4614257813,4120.3847656250,4406.1538085938,4177.0512695313,4210.1284179688,4170.3847656250,4043.0769042969,3961.4101562500,4226.1538085938,6032.8203125000,4119.7436523438,3487.9487304688,,,
3.8203125000,0,4263.4614257813,4244.8715820313,4151.7949218750,4120.1284179688,4435.7690429688,4178.8461914063,4209.4873046875,4171.2822265625,4041.9230957031,3959.6154785156,4224.6152343750,5996.5385742188,4112.3076171875,3486.2819824219,,,
3.8281250000,0,4263.5898437500,4242.8203125000,4166.1538085938,4118.2050781250,4423.4614257813,4184.4873046875,4208.4614257813,4171.2822265625,4042.4357910156,3961.0256347656,4227.1796875000,5994.2309570313,4108.5898437500,3484.4870605469,,,
3.8359375000,0,4264.1025390625,4240.3847656250,4170.5126953125,4117.4360351563,4445.2563476563,4183.4614257813,4210.2563476563,4170.0000000000,4042.3076171875,3961.5385742188,4229.6152343750,5960.8974609375,4100.8974609375,3487.5642089844,,,
3.8437500000,0,4264.2309570313,4238.9741210938,4176.2822265625,4120.8974609375,4484.4873046875,4182.6923828125,4209.7436523438,4169.4873046875,4038.9743652344,3960.8974609375,4230.7690429688,5902.0512695313,4092.5642089844,3488.7180175781,,,
3.8515625000,0,4262.6923828125,4236.9228515625,4181.9228515625,4116.6665039063,4458.4614257813,4182.1796875000,4207.8203125000,4171.1538085938,4039.7436523438,3961.2819824219,4232.4360351563,5921.7949218750,4091.6667480469,3487.0512695313,,,
3.8593750000,0,4264.4873046875,4236.2822265625,4182.9487304688,4110.8974609375,4437.4360351563,4183.2050781250,4208.7177734375,4174.4873046875,4043.4614257813,3960.6411132813,4231.4101562500,5937.9487304688,4093.4614257813,3491.0256347656,,,
